NAFC_Y2K_HEADER
20003084  50  0.00 -049  0.00 1999-11-26 08:36 1820 S0277 046 V   BB-13        1
20003084 000831  8.00 A 08 #PTCSMFO------------            D 000 0001 0924 000 4
20003084 4 27 37 02 1010.0  38.0   2.2 06 02 24 12 03                          8
-- CHANNEL STATS -->
# span     scan =      4.000, 26072.000
# span     pres =      1.867,   924.695
# span     temp =      3.230,     4.550
# span     cond =      3.103,     3.299
# span      sal =     33.983,    34.867
# span   sigmat =     27.052,    27.732
# span     flor =      0.001,     0.238
# span      oxy =      6.699,     7.802
-- END --
-- HISTORY --> Fri Dec 10 14:00:45 1999
>SELECT_PROBE S
>READ # (DP) T C O F scan pres temp cond oxy flor
>STABILIZE_RESTRICT USING= pres 25.0 5
>RESTRICT USING= pres 0.0 2000.0
>RESTRICT USING= cond 2.0 5.0
>RESTRICT USING= temp -2.0 20.0
>RESTRICT USING= flor 0.001 30.0
>MEDIANFILTER pres 21 1
>MEDIANFILTER temp 21 1
>MEDIANFILTER cond 21 1
>MEDIANFILTER flor 21 1
>MEDIANFILTER oxy 21 1
>SELECT_DN USING= pres
>SALINITY PRESSURE=pres CONDUCTIVITY=cond TEMPERATURE=temp RESULT=sal
>RESTRICT USING= sal 29.0 36.0
>MEDIANFILTER sal 21 1
>SIGMAT SALINITY=sal TEMPERATURE=temp RESULT=sigt
>MEDIANFILTER sigt 21 1
>HISTORY_ON
>WRITEFILE .p?? scan pres temp cond sal sigt oxy flor
-- END --
-- HISTORY --> Sat Jan 29 13:14:03 2000
>READ # T (DP) C S M F O  scan temp pres cond sal sigmat flor oxy
>HISTORY_ON
>SET_NEW_HEADER
>WRITEFILE .p???? scan pres temp cond sal sigmat flor oxy
>END
-- END --
 scan     pres     temp     cond      sal   sigmat     flor      oxy 
-- DATA --
    4    1.867    3.232    3.103   33.983   27.052    0.195    7.702 
   10    1.961    3.232    3.104   33.995   27.062    0.194    7.711 
   16    2.072    3.233    3.104   33.994   27.061    0.195    7.711 
   26    2.318    3.233    3.105   34.006   27.070    0.194    7.710 
   36    2.506    3.232    3.105   34.007   27.071    0.194    7.710 
   52    2.634    3.232    3.106   34.019   27.081    0.195    7.724 
   69    2.724    3.231    3.105   34.008   27.072    0.199    7.748 
  567    2.948    3.232    3.105   34.007   27.071    0.194    7.787 
  814    3.260    3.233    3.105   34.006   27.070    0.191    7.802 
  817    3.508    3.233    3.104   33.993   27.060    0.191    7.802 
  821    3.839    3.233    3.106   34.015   27.077    0.194    7.785 
  825    4.153    3.233    3.106   34.015   27.077    0.194    7.785 
  828    4.356    3.233    3.106   34.015   27.078    0.194    7.785 
  831    4.606    3.233    3.106   34.016   27.079    0.194    7.785 
  834    4.851    3.233    3.106   34.016   27.079    0.195    7.785 
  840    5.289    3.233    3.106   34.017   27.079    0.195    7.785 
  845    5.684    3.233    3.106   34.017   27.079    0.197    7.785 
  850    6.122    3.233    3.106   34.017   27.079    0.197    7.785 
  854    6.385    3.234    3.106   34.017   27.079    0.198    7.784 
  857    6.624    3.234    3.106   34.017   27.079    0.199    7.781 
  860    6.855    3.234    3.106   34.017   27.079    0.199    7.781 
  863    7.141    3.234    3.106   34.017   27.079    0.200    7.779 
  866    7.372    3.234    3.107   34.023   27.083    0.200    7.777 
  869    7.624    3.235    3.107   34.023   27.083    0.201    7.775 
  873    8.060    3.235    3.107   34.023   27.083    0.203    7.768 
  900    8.393    3.235    3.107   34.023   27.083    0.204    7.756 
  942    8.559    3.235    3.107   34.023   27.083    0.204    7.744 
  950    8.811    3.235    3.107   34.023   27.083    0.204    7.742 
  955    9.091    3.235    3.107   34.023   27.083    0.205    7.740 
  958    9.236    3.235    3.107   34.023   27.083    0.205    7.740 
  963    9.608    3.236    3.107   34.023   27.083    0.205    7.740 
  966    9.796    3.236    3.107   34.023   27.083    0.206    7.739 
  969   10.035    3.236    3.107   34.023   27.083    0.206    7.739 
  972   10.266    3.237    3.107   34.022   27.083    0.206    7.736 
  976   10.625    3.237    3.107   34.021   27.082    0.206    7.735 
  980   10.924    3.237    3.107   34.021   27.082    0.207    7.735 
  983   11.189    3.237    3.107   34.021   27.082    0.207    7.727 
  986   11.445    3.237    3.107   34.021   27.082    0.207    7.727 
  989   11.706    3.237    3.107   34.021   27.082    0.207    7.727 
  992   11.941    3.237    3.107   34.021   27.082    0.207    7.727 
  995   12.238    3.237    3.107   34.021   27.082    0.208    7.727 
  998   12.471    3.237    3.107   34.021   27.082    0.208    7.727 
 1001   12.785    3.238    3.107   34.021   27.082    0.208    7.726 
 1004   13.052    3.238    3.107   34.021   27.082    0.208    7.725 
 1007   13.334    3.238    3.107   34.021   27.082    0.209    7.724 
 1010   13.601    3.239    3.107   34.021   27.082    0.209    7.723 
 1013   13.928    3.239    3.108   34.028   27.087    0.209    7.721 
 1016   14.178    3.239    3.108   34.028   27.087    0.210    7.721 
 1019   14.507    3.239    3.108   34.028   27.087    0.210    7.721 
 1022   14.774    3.239    3.108   34.028   27.087    0.210    7.720 
 1025   15.086    3.239    3.108   34.028   27.087    0.210    7.720 
 1028   15.368    3.239    3.108   34.028   27.087    0.210    7.720 
 1036   15.712    3.239    3.108   34.028   27.087    0.210    7.720 
 1107   16.087    3.239    3.108   34.028   27.087    0.210    7.716 
 1115   16.352    3.239    3.108   34.028   27.087    0.213    7.715 
 1125   16.829    3.239    3.108   34.028   27.087    0.223    7.713 
 1129   17.057    3.239    3.108   34.028   27.087    0.223    7.711 
 1132   17.224    3.238    3.108   34.028   27.087    0.223    7.710 
 1136   17.457    3.236    3.107   34.019   27.081    0.223    7.710 
 1140   17.724    3.236    3.107   34.019   27.080    0.223    7.710 
 1143   17.933    3.236    3.107   34.019   27.080    0.223    7.710 
 1146   18.138    3.236    3.107   34.019   27.080    0.223    7.710 
 1149   18.350    3.236    3.107   34.019   27.080    0.223    7.710 
 1154   18.711    3.235    3.107   34.019   27.080    0.223    7.710 
 1160   19.115    3.235    3.107   34.019   27.080    0.223    7.710 
 1164   19.431    3.235    3.107   34.019   27.080    0.223    7.710 
 1167   19.640    3.235    3.107   34.019   27.080    0.223    7.710 
 1170   19.835    3.235    3.107   34.019   27.080    0.223    7.709 
 1173   20.048    3.235    3.107   34.019   27.080    0.223    7.709 
 1176   20.234    3.235    3.107   34.019   27.080    0.223    7.703 
 1180   20.463    3.234    3.107   34.019   27.080    0.223    7.703 
 1184   20.689    3.234    3.107   34.019   27.080    0.223    7.702 
 1192   21.057    3.233    3.107   34.019   27.081    0.223    7.702 
 1201   21.412    3.233    3.107   34.019   27.081    0.223    7.700 
 1252   22.127    3.233    3.107   34.019   27.081    0.223    7.699 
 1278   22.672    3.233    3.107   34.019   27.081    0.223    7.697 
 1287   22.967    3.233    3.107   34.019   27.081    0.223    7.697 
 1292   23.195    3.233    3.107   34.019   27.081    0.223    7.696 
 1298   23.422    3.233    3.107   34.019   27.081    0.223    7.696 
 1301   23.539    3.233    3.107   34.019   27.081    0.223    7.696 
 1307   23.781    3.234    3.107   34.019   27.081    0.225    7.695 
 1314   24.095    3.234    3.107   34.020   27.081    0.225    7.694 
 1325   24.548    3.234    3.107   34.020   27.081    0.225    7.694 
 1331   24.783    3.234    3.108   34.027   27.087    0.226    7.692 
 1335   24.956    3.234    3.108   34.027   27.087    0.226    7.689 
 1347   25.379    3.234    3.108   34.027   27.087    0.228    7.689 
 1363   25.926    3.234    3.108   34.027   27.087    0.228    7.689 
 1522   26.099    3.234    3.108   34.027   27.087    0.229    7.685 
 1943   26.238    3.234    3.108   34.027   27.087    0.229    7.671 
 2006   26.676    3.234    3.108   34.027   27.087    0.230    7.670 
 2015   27.097    3.234    3.108   34.027   27.087    0.230    7.669 
 2020   27.411    3.234    3.108   34.027   27.087    0.230    7.669 
 2029   27.911    3.234    3.108   34.027   27.087    0.231    7.669 
 2033   28.116    3.234    3.108   34.027   27.087    0.231    7.669 
 2036   28.287    3.234    3.108   34.027   27.087    0.232    7.669 
 2039   28.463    3.234    3.108   34.027   27.087    0.232    7.669 
 2042   28.640    3.234    3.108   34.027   27.087    0.232    7.669 
 2045   28.807    3.234    3.108   34.027   27.087    0.232    7.669 
 2051   29.134    3.234    3.108   34.027   27.087    0.232    7.669 
 2055   29.386    3.233    3.108   34.027   27.087    0.232    7.669 
 2062   29.777    3.233    3.108   34.027   27.087    0.232    7.670 
 2072   30.279    3.233    3.108   34.027   27.087    0.232    7.670 
 2081   30.653    3.233    3.108   34.027   27.087    0.232    7.670 
 2092   31.061    3.233    3.108   34.027   27.087    0.232    7.670 
 2097   31.209    3.232    3.108   34.027   27.087    0.232    7.671 
 2105   31.405    3.232    3.108   34.027   27.087    0.232    7.672 
 2145   32.085    3.231    3.108   34.027   27.087    0.233    7.673 
 2164   32.523    3.231    3.108   34.027   27.087    0.233    7.674 
 2174   32.884    3.231    3.108   34.027   27.087    0.233    7.674 
 2180   33.145    3.230    3.107   34.027   27.087    0.233    7.674 
 2183   33.290    3.230    3.107   34.027   27.087    0.233    7.674 
 2186   33.427    3.230    3.107   34.027   27.087    0.233    7.674 
 2194   33.807    3.230    3.107   34.027   27.087    0.233    7.675 
 2199   34.100    3.230    3.107   34.026   27.087    0.233    7.674 
 2205   34.386    3.230    3.108   34.026   27.087    0.233    7.674 
 2208   34.553    3.231    3.108   34.026   27.087    0.233    7.674 
 2211   34.698    3.231    3.108   34.023   27.084    0.233    7.674 
 2216   34.951    3.231    3.108   34.022   27.083    0.233    7.674 
 2221   35.201    3.231    3.108   34.020   27.082    0.233    7.674 
 2226   35.421    3.231    3.108   34.019   27.081    0.233    7.674 
 2231   35.656    3.231    3.108   34.019   27.081    0.233    7.674 
 2239   35.959    3.234    3.108   34.019   27.081    0.233    7.674 
 2247   36.203    3.235    3.108   34.019   27.081    0.233    7.674 
 2263   36.630    3.236    3.108   34.019   27.081    0.233    7.675 
 2274   36.893    3.237    3.108   34.019   27.080    0.234    7.675 
 2279   37.007    3.237    3.108   34.019   27.080    0.234    7.675 
 2283   37.139    3.237    3.108   34.019   27.080    0.234    7.675 
 2294   37.462    3.237    3.108   34.019   27.080    0.234    7.675 
 2302   37.772    3.237    3.108   34.019   27.080    0.233    7.675 
 2308   37.960    3.237    3.108   34.019   27.080    0.233    7.675 
 2312   38.109    3.237    3.108   34.019   27.080    0.233    7.675 
 2323   38.494    3.237    3.108   34.019   27.080    0.233    7.675 
 2333   38.789    3.237    3.108   34.019   27.080    0.233    7.676 
 2338   38.941    3.237    3.108   34.019   27.080    0.231    7.679 
 2347   39.137    3.237    3.108   34.019   27.080    0.230    7.679 
 2365   39.454    3.237    3.108   34.019   27.080    0.230    7.679 
 2377   39.653    3.237    3.108   34.019   27.080    0.230    7.679 
 2383   39.796    3.237    3.108   34.019   27.080    0.230    7.679 
 2394   40.061    3.239    3.109   34.023   27.084    0.231    7.679 
 2398   40.230    3.239    3.109   34.024   27.084    0.231    7.679 
 2401   40.371    3.241    3.109   34.024   27.084    0.231    7.679 
 2404   40.478    3.241    3.109   34.025   27.085    0.231    7.679 
 2407   40.619    3.241    3.109   34.025   27.085    0.231    7.679 
 2410   40.760    3.241    3.109   34.025   27.085    0.231    7.679 
 2413   40.901    3.242    3.109   34.025   27.085    0.231    7.678 
 2420   41.294    3.242    3.109   34.025   27.085    0.231    7.678 
 2425   41.578    3.242    3.109   34.026   27.085    0.232    7.678 
 2428   41.764    3.244    3.110   34.027   27.086    0.233    7.677 
 2431   41.953    3.247    3.110   34.027   27.086    0.234    7.677 
 2434   42.143    3.249    3.110   34.028   27.086    0.235    7.677 
 2437   42.312    3.258    3.111   34.028   27.086    0.235    7.675 
 2440   42.532    3.260    3.111   34.030   27.086    0.235    7.673 
 2443   42.720    3.262    3.111   34.030   27.086    0.235    7.670 
 2446   42.906    3.263    3.111   34.030   27.086    0.235    7.669 
 2449   43.116    3.266    3.112   34.030   27.086    0.235    7.669 
 2452   43.314    3.268    3.112   34.030   27.086    0.235    7.669 
 2455   43.517    3.268    3.112   34.030   27.086    0.235    7.669 
 2458   43.725    3.269    3.112   34.030   27.086    0.235    7.668 
 2461   43.915    3.269    3.112   34.030   27.086    0.235    7.668 
 2465   44.131    3.269    3.112   34.030   27.086    0.235    7.668 
 2469   44.396    3.269    3.112   34.030   27.086    0.235    7.668 
 2475   44.742    3.269    3.112   34.029   27.086    0.233    7.668 
 2481   45.040    3.269    3.112   34.029   27.086    0.233    7.668 
 2484   45.153    3.268    3.112   34.029   27.086    0.232    7.669 
 2488   45.337    3.266    3.112   34.029   27.086    0.231    7.669 
 2492   45.480    3.264    3.111   34.029   27.086    0.230    7.669 
 2497   45.638    3.263    3.111   34.029   27.086    0.230    7.669 
 2507   45.869    3.262    3.111   34.029   27.086    0.230    7.669 
 2548   46.155    3.260    3.111   34.029   27.086    0.230    7.678 
 2594   46.562    3.260    3.111   34.029   27.086    0.230    7.678 
 2598   46.733    3.259    3.111   34.029   27.086    0.230    7.680 
 2601   46.891    3.259    3.111   34.029   27.086    0.230    7.685 
 2604   47.081    3.259    3.111   34.029   27.086    0.230    7.691 
 2607   47.265    3.257    3.111   34.027   27.086    0.230    7.704 
 2610   47.455    3.257    3.111   34.027   27.086    0.230    7.709 
 2613   47.673    3.256    3.111   34.027   27.087    0.230    7.713 
 2618   48.050    3.255    3.111   34.027   27.087    0.233    7.716 
 2621   48.268    3.255    3.111   34.029   27.087    0.234    7.732 
 2624   48.490    3.254    3.111   34.029   27.087    0.235    7.734 
 2627   48.740    3.254    3.111   34.030   27.087    0.236    7.743 
 2630   48.958    3.253    3.111   34.030   27.088    0.236    7.743 
 2633   49.194    3.253    3.110   34.030   27.088    0.236    7.743 
 2636   49.431    3.253    3.110   34.031   27.088    0.237    7.734 
 2639   49.679    3.253    3.110   34.031   27.088    0.237    7.734 
 2642   49.933    3.253    3.110   34.031   27.088    0.238    7.732 
 2645   50.181    3.253    3.111   34.031   27.088    0.238    7.732 
 2648   50.404    3.253    3.111   34.031   27.089    0.238    7.734 
 2651   50.622    3.253    3.111   34.031   27.089    0.238    7.742 
 2654   50.855    3.253    3.111   34.031   27.089    0.238    7.743 
 2657   51.045    3.253    3.111   34.031   27.089    0.238    7.757 
 2661   51.295    3.253    3.111   34.031   27.089    0.238    7.761 
 2666   51.640    3.253    3.111   34.031   27.089    0.238    7.763 
 2673   51.984    3.369    3.125   34.063   27.100    0.238    7.763 
 2679   52.236    3.475    3.133   34.072   27.100    0.238    7.763 
 2687   52.489    3.476    3.134   34.072   27.100    0.238    7.763 
 2735   52.786    3.489    3.135   34.073   27.100    0.238    7.763 
 2774   53.145    3.496    3.136   34.075   27.101    0.220    7.763 
 2781   53.382    3.497    3.136   34.076   27.101    0.218    7.763 
 2793   53.930    3.500    3.136   34.076   27.101    0.214    7.757 
 2801   54.338    3.501    3.137   34.077   27.101    0.213    7.749 
 2806   54.588    3.506    3.137   34.077   27.101    0.212    7.742 
 2810   54.839    3.506    3.137   34.077   27.102    0.211    7.739 
 2813   55.012    3.507    3.137   34.078   27.103    0.210    7.739 
 2816   55.183    3.517    3.139   34.082   27.104    0.210    7.739 
 2821   55.482    3.523    3.139   34.083   27.104    0.208    7.739 
 2824   55.670    3.529    3.140   34.086   27.106    0.206    7.739 
 2830   55.998    3.540    3.140   34.088   27.106    0.203    7.737 
 2836   56.376    3.542    3.141   34.089   27.107    0.201    7.736 
 2841   56.656    3.549    3.142   34.091   27.107    0.200    7.736 
 2846   56.956    3.572    3.144   34.091   27.108    0.199    7.736 
 2853   57.332    3.635    3.152   34.120   27.116    0.197    7.736 
 2858   57.597    3.741    3.163   34.125   27.117    0.197    7.736 
 2861   57.738    3.756    3.163   34.131   27.117    0.196    7.736 
 2865   57.941    3.787    3.167   34.132   27.119    0.194    7.736 
 2869   58.115    3.794    3.167   34.133   27.119    0.192    7.736 
 2876   58.397    3.800    3.168   34.135   27.119    0.188    7.736 
 2882   58.615    3.806    3.168   34.137   27.120    0.182    7.732 
 2894   58.914    3.807    3.168   34.138   27.122    0.176    7.723 
 2960   59.479    3.807    3.169   34.140   27.122    0.170    7.702 
 2976   59.825    3.812    3.169   34.141   27.123    0.169    7.685 
 2980   59.967    3.813    3.170   34.142   27.123    0.169    7.674 
 2984   60.108    3.825    3.170   34.145   27.124    0.169    7.669 
 2989   60.358    3.827    3.171   34.148   27.126    0.168    7.662 
 2995   60.655    3.840    3.173   34.155   27.130    0.168    7.649 
 2998   60.796    3.850    3.174   34.156   27.130    0.168    7.644 
 3001   60.984    3.869    3.176   34.160   27.132    0.168    7.639 
 3008   61.408    4.065    3.201   34.252   27.185    0.165    7.639 
 3013   61.722    4.332    3.230   34.314   27.188    0.159    7.608 
 3016   61.910    4.447    3.240   34.314   27.189    0.153    7.588 
 3020   62.208    4.507    3.246   34.316   27.190    0.144    7.587 
 3024   62.460    4.526    3.247   34.318   27.192    0.136    7.586 
 3030   62.960    4.533    3.248   34.322   27.193    0.122    7.584 
 3034   63.213    4.538    3.249   34.324   27.196    0.116    7.580 
 3037   63.431    4.543    3.250   34.331   27.202    0.112    7.579 
 3040   63.649    4.543    3.251   34.338   27.205    0.108    7.575 
 3043   63.872    4.547    3.251   34.342   27.206    0.106    7.572 
 3046   64.090    4.550    3.252   34.346   27.208    0.104    7.565 
 3049   64.312    4.550    3.252   34.347   27.208    0.101    7.565 
 3053   64.592    4.550    3.253   34.358   27.217    0.097    7.559 
 3062   65.140    4.550    3.254   34.369   27.226    0.093    7.544 
 3068   65.501    4.550    3.254   34.369   27.226    0.090    7.532 
 3071   65.642    4.550    3.255   34.380   27.235    0.088    7.525 
 3075   65.846    4.550    3.255   34.381   27.235    0.085    7.517 
 3083   66.145    4.550    3.255   34.381   27.235    0.080    7.508 
 3132   66.583    4.550    3.255   34.381   27.235    0.072    7.451 
 3203   66.927    4.550    3.257   34.404   27.253    0.069    7.361 
 3208   67.148    4.549    3.257   34.405   27.254    0.067    7.355 
 3212   67.415    4.544    3.257   34.410   27.259    0.065    7.353 
 3221   68.042    4.544    3.258   34.421   27.267    0.064    7.347 
 3224   68.277    4.544    3.258   34.421   27.268    0.064    7.346 
 3227   68.512    4.544    3.258   34.421   27.268    0.064    7.342 
 3230   68.747    4.544    3.259   34.432   27.277    0.064    7.338 
 3233   69.030    4.543    3.259   34.433   27.277    0.064    7.335 
 3236   69.278    4.543    3.259   34.433   27.277    0.063    7.335 
 3239   69.547    4.542    3.259   34.434   27.278    0.063    7.332 
 3242   69.830    4.542    3.259   34.434   27.278    0.063    7.330 
 3246   70.200    4.542    3.260   34.445   27.287    0.062    7.329 
 3250   70.550    4.540    3.261   34.459   27.298    0.062    7.329 
 3253   70.818    4.539    3.261   34.460   27.299    0.062    7.329 
 3256   71.126    4.537    3.261   34.461   27.300    0.062    7.328 
 3259   71.383    4.537    3.261   34.461   27.300    0.062    7.326 
 3262   71.682    4.537    3.261   34.461   27.300    0.062    7.326 
 3265   71.943    4.537    3.261   34.461   27.301    0.062    7.326 
