NAFC_Y2K_HEADER
39474022  48 11.18 -053 47.11 2004-02-07 13:25 0168 S0038 S19 V CTD SS 19      1
39474022 000553  8.00 A 07 #PTCSMF-------------            D 000 0000 0161 000 4
39474022 8 26 14 02 1009.5 -01.5 -02.5 01 01                                   8
-- CHANNEL STATS -->
# span     scan =   1871.000,  3790.000
# span     pres =      0.946,   161.058
# span     temp =      0.307,     0.978
# span     cond =      2.709,     2.795
# span      sal =     32.099,    32.751
# span     sigt =     25.750,    26.263
# span     flor =      0.330,     1.070
-- END --
!! ACQUIRED USING > AQUIRE 4.008     AT 2004-02-07 13:40:09
cast 0  02/07 13:25:58  smpls 0 to 5743  nv = 1  avg = 1  stp = switch off
-- HISTORY --> Mon Feb 23 09:52:00 2004
>SELECT_PROBE S
>READ # (DP) T C F scan pres temp cond flor
>STABILIZE_RESTRICT USING= pres  10.0 5
>RESTRICT USING= pres 0.1 2000.0
>RESTRICT USING= cond 2.0 5.0
>RESTRICT USING= temp -2.0 20.0
>RESTRICT USING= scan 100.0 30000.0
>MEDIANFILTER pres 21 1
>MEDIANFILTER temp 21 1
>MEDIANFILTER cond 21 1
>MEDIANFILTER flor 21 1
>SELECT_DN USING= pres
>SALINITY PRESSURE=pres CONDUCTIVITY=cond TEMPERATURE=temp RESULT=sal
>RESTRICT USING= sal  29.0 36.0
>MEDIANFILTER sal 21 1
>SIGMAT SALINITY=sal TEMPERATURE=temp RESULT=sigt
>MEDIANFILTER sigt 21 1
>HISTORY_ON
>WRITEFILE .p???? scan pres temp cond sal sigt flor
-- END --
 scan     pres     temp     cond      sal     sigt     flor 
-- DATA --
 1871    0.946    0.307    2.709   32.100   25.751    0.710 
 1872    1.232    0.308    2.709   32.099   25.750    0.700 
 1875    1.517    0.308    2.709   32.099   25.750    0.700 
 2303    1.803    0.317    2.710   32.101   25.752    0.700 
 2312    2.089    0.315    2.710   32.101   25.752    0.710 
 2317    2.375    0.315    2.710   32.101   25.752    0.720 
 2319    2.661    0.315    2.710   32.101   25.751    0.720 
 2321    2.947    0.316    2.710   32.100   25.751    0.720 
 2323    3.233    0.318    2.710   32.103   25.753    0.720 
 2327    3.519    0.325    2.711   32.101   25.751    0.720 
 2331    3.805    0.328    2.711   32.104   25.753    0.730 
 2334    4.091    0.329    2.711   32.104   25.753    0.730 
 2337    4.376    0.330    2.711   32.105   25.754    0.730 
 2339    4.662    0.332    2.712   32.105   25.754    0.730 
 2342    4.948    0.354    2.714   32.110   25.757    0.730 
 2345    5.234    0.359    2.714   32.111   25.757    0.730 
 2347    5.520    0.363    2.715   32.116   25.761    0.730 
 2348    5.806    0.364    2.715   32.117   25.762    0.730 
 2352    6.092    0.388    2.718   32.123   25.765    0.740 
 2354    6.378    0.389    2.718   32.125   25.767    0.740 
 2355    6.664    0.401    2.719   32.126   25.768    0.740 
 2356    6.950    0.407    2.720   32.133   25.772    0.740 
 2358    7.235    0.410    2.720   32.133   25.772    0.740 
 2360    7.521    0.410    2.720   32.134   25.773    0.740 
 2362    7.807    0.411    2.720   32.135   25.774    0.740 
 2363    8.093    0.411    2.720   32.135   25.774    0.740 
 2366    8.379    0.413    2.721   32.137   25.776    1.070 
 2368    8.665    0.415    2.721   32.138   25.776    1.070 
 2369    8.951    0.415    2.721   32.138   25.776    1.070 
 2372    9.237    0.418    2.721   32.139   25.777    1.070 
 2375    9.523    0.420    2.722   32.141   25.778    1.070 
 2379    9.809    0.423    2.722   32.142   25.779    1.020 
 2382   10.094    0.426    2.722   32.143   25.780    0.980 
 2387   10.380    0.428    2.722   32.143   25.780    0.950 
 2391   10.666    0.433    2.723   32.146   25.781    0.910 
 2398   10.952    0.438    2.724   32.149   25.784    0.860 
 2400   11.238    0.439    2.724   32.150   25.785    0.860 
 2402   11.524    0.439    2.724   32.151   25.785    0.860 
 2406   11.810    0.439    2.724   32.153   25.787    0.860 
 2407   12.096    0.439    2.724   32.153   25.787    0.860 
 2409   12.382    0.439    2.724   32.154   25.788    0.870 
 2412   12.668    0.439    2.724   32.155   25.789    0.870 
 2415   12.953    0.439    2.724   32.155   25.789    0.870 
 2416   13.239    0.439    2.724   32.155   25.789    0.870 
 2419   13.525    0.439    2.725   32.156   25.790    0.870 
 2424   13.811    0.439    2.725   32.158   25.791    0.840 
 2425   14.097    0.439    2.725   32.158   25.792    0.830 
 2428   14.383    0.439    2.725   32.159   25.792    0.810 
 2430   14.669    0.439    2.725   32.159   25.792    0.810 
 2432   14.955    0.440    2.725   32.160   25.793    0.810 
 2436   15.241    0.440    2.725   32.161   25.793    0.790 
 2438   15.526    0.440    2.725   32.161   25.793    0.790 
 2440   15.812    0.440    2.725   32.161   25.793    0.780 
 2443   16.098    0.441    2.725   32.163   25.796    0.770 
 2446   16.384    0.442    2.726   32.165   25.797    0.770 
 2447   16.670    0.442    2.726   32.166   25.797    0.770 
 2448   16.956    0.442    2.726   32.166   25.797    0.770 
 2450   17.242    0.442    2.726   32.166   25.797    0.770 
 2452   17.528    0.442    2.726   32.166   25.797    0.770 
 2454   17.814    0.442    2.726   32.166   25.798    0.770 
 2457   18.100    0.442    2.726   32.166   25.798    0.770 
 2459   18.385    0.442    2.726   32.167   25.799    0.770 
 2462   18.671    0.442    2.726   32.171   25.802    0.800 
 2464   18.957    0.442    2.726   32.172   25.802    0.950 
 2468   19.243    0.442    2.726   32.172   25.802    0.950 
 2471   19.529    0.442    2.726   32.172   25.803    0.950 
 2476   19.815    0.442    2.726   32.173   25.803    0.930 
 2481   20.101    0.442    2.726   32.173   25.803    0.890 
 2485   20.387    0.442    2.727   32.175   25.805    0.880 
 2491   20.673    0.442    2.727   32.176   25.806    0.870 
 2493   20.959    0.442    2.727   32.176   25.806    0.870 
 2494   21.244    0.442    2.727   32.176   25.806    0.870 
 2496   21.530    0.442    2.727   32.177   25.807    0.860 
 2499   21.816    0.442    2.727   32.178   25.807    0.860 
 2501   22.102    0.442    2.727   32.179   25.808    0.840 
 2503   22.388    0.441    2.727   32.179   25.808    0.830 
 2505   22.674    0.441    2.727   32.180   25.809    0.820 
 2509   22.960    0.441    2.727   32.184   25.812    0.800 
 2512   23.246    0.440    2.727   32.187   25.815    0.790 
 2514   23.532    0.439    2.727   32.188   25.815    0.780 
 2517   23.818    0.439    2.727   32.189   25.816    0.760 
 2519   24.104    0.435    2.727   32.192   25.819    0.750 
 2521   24.389    0.435    2.728   32.192   25.819    0.740 
 2525   24.675    0.435    2.728   32.193   25.819    0.730 
 2526   24.961    0.435    2.728   32.193   25.819    0.730 
 2528   25.247    0.435    2.728   32.194   25.820    0.730 
 2530   25.533    0.436    2.728   32.194   25.820    0.730 
 2533   26.105    0.439    2.728   32.194   25.821    0.720 
 2536   26.677    0.440    2.728   32.195   25.821    0.720 
 2540   26.963    0.442    2.728   32.195   25.821    0.720 
 2542   27.248    0.442    2.728   32.195   25.821    0.720 
 2544   27.534    0.444    2.729   32.195   25.821    0.710 
 2547   27.820    0.454    2.729   32.195   25.821    0.710 
 2550   28.106    0.459    2.730   32.197   25.822    0.700 
 2554   28.392    0.462    2.731   32.201   25.825    0.700 
 2558   28.678    0.465    2.731   32.201   25.825    0.700 
 2563   28.964    0.481    2.734   32.218   25.835    0.690 
 2569   29.250    0.519    2.736   32.220   25.837    0.680 
 2571   29.536    0.570    2.741   32.223   25.837    0.680 
 2574   29.822    0.594    2.743   32.225   25.837    0.670 
 2575   30.107    0.618    2.745   32.226   25.837    0.670 
 2579   30.393    0.702    2.753   32.229   25.837    0.660 
 2582   30.679    0.768    2.759   32.236   25.837    0.650 
 2584   30.965    0.816    2.761   32.243   25.839    0.650 
 2586   31.251    0.917    2.772   32.262   25.849    0.640 
 2590   31.537    0.944    2.775   32.275   25.858    0.630 
 2592   31.823    0.955    2.777   32.280   25.861    0.630 
 2594   32.109    0.961    2.777   32.283   25.863    0.630 
 2597   32.395    0.970    2.778   32.286   25.865    0.630 
 2600   32.681    0.975    2.779   32.289   25.868    0.610 
 2601   32.966    0.977    2.779   32.290   25.868    0.610 
 2605   33.252    0.978    2.779   32.292   25.869    0.600 
 2608   33.538    0.978    2.779   32.292   25.869    0.580 
 2610   33.824    0.978    2.779   32.292   25.869    0.570 
 2613   34.110    0.977    2.779   32.293   25.870    0.570 
 2615   34.396    0.946    2.778   32.304   25.881    0.560 
 2617   34.682    0.918    2.776   32.304   25.883    0.560 
 2619   34.968    0.911    2.775   32.304   25.883    0.550 
 2621   35.254    0.910    2.775   32.305   25.884    0.540 
 2622   35.540    0.910    2.775   32.305   25.884    0.540 
 2624   35.826    0.910    2.775   32.305   25.884    0.540 
 2627   36.111    0.909    2.775   32.305   25.884    0.530 
 2629   36.397    0.901    2.775   32.307   25.886    0.520 
 2630   36.683    0.888    2.774   32.307   25.887    0.520 
 2633   36.969    0.848    2.771   32.308   25.890    0.510 
 2638   37.255    0.713    2.762   32.310   25.899    0.500 
 2640   37.541    0.575    2.749   32.312   25.905    0.500 
 2645   37.827    0.573    2.748   32.314   25.906    0.490 
 2650   38.113    0.573    2.748   32.314   25.906    0.490 
 2657   38.399    0.643    2.753   32.314   25.906    0.490 
 2661   38.685    0.680    2.757   32.316   25.908    0.490 
 2665   38.970    0.680    2.757   32.316   25.908    0.490 
 2667   39.256    0.680    2.757   32.317   25.910    0.490 
 2670   39.828    0.665    2.757   32.318   25.910    0.490 
 2674   40.114    0.611    2.753   32.318   25.911    0.490 
 2676   40.400    0.571    2.749   32.318   25.913    0.490 
 2679   40.686    0.564    2.748   32.318   25.913    0.490 
 2681   40.972    0.564    2.748   32.318   25.914    0.490 
 2684   41.258    0.551    2.747   32.318   25.914    0.490 
 2686   41.544    0.542    2.747   32.318   25.915    0.490 
 2688   41.830    0.541    2.746   32.318   25.915    0.490 
 2690   42.115    0.540    2.746   32.319   25.916    0.490 
 2693   42.401    0.540    2.746   32.319   25.916    0.490 
 2695   42.687    0.540    2.746   32.320   25.916    0.480 
 2698   42.973    0.540    2.746   32.320   25.916    0.480 
 2701   43.259    0.557    2.748   32.320   25.916    0.480 
 2702   43.545    0.566    2.749   32.322   25.917    0.480 
 2704   43.831    0.613    2.754   32.335   25.925    0.480 
 2706   44.117    0.617    2.754   32.336   25.925    0.480 
 2708   44.403    0.623    2.755   32.338   25.927    0.480 
 2710   44.689    0.625    2.755   32.340   25.928    0.480 
 2711   44.974    0.625    2.755   32.340   25.928    0.480 
 2714   45.260    0.625    2.755   32.342   25.929    0.480 
 2715   45.546    0.626    2.755   32.342   25.929    0.470 
 2718   45.832    0.626    2.755   32.342   25.930    0.470 
 2722   46.118    0.627    2.755   32.342   25.930    0.460 
 2724   46.404    0.627    2.755   32.342   25.930    0.460 
 2729   46.690    0.627    2.756   32.343   25.930    0.460 
 2733   46.976    0.627    2.756   32.343   25.931    0.450 
 2738   47.262    0.628    2.756   32.344   25.931    0.450 
 2741   47.548    0.629    2.756   32.344   25.931    0.450 
 2745   47.834    0.630    2.756   32.345   25.932    0.450 
 2748   48.119    0.632    2.756   32.347   25.933    0.480 
 2752   48.691    0.643    2.757   32.349   25.934    0.480 
 2755   48.977    0.645    2.758   32.350   25.935    0.480 
 2758   49.263    0.646    2.758   32.351   25.936    0.480 
 2761   49.549    0.647    2.758   32.351   25.936    0.470 
 2763   49.835    0.648    2.758   32.352   25.936    0.460 
 2766   50.121    0.653    2.759   32.354   25.938    0.460 
 2769   50.407    0.676    2.761   32.355   25.938    0.450 
 2772   50.693    0.687    2.763   32.373   25.951    0.450 
 2774   50.979    0.688    2.763   32.373   25.952    0.440 
 2775   51.264    0.689    2.763   32.374   25.952    0.440 
 2779   51.550    0.690    2.763   32.374   25.952    0.440 
 2782   51.836    0.690    2.763   32.376   25.953    0.440 
 2785   52.122    0.689    2.763   32.376   25.954    0.430 
 2786   52.408    0.689    2.763   32.377   25.954    0.430 
 2788   52.694    0.688    2.763   32.377   25.954    0.430 
 2791   52.980    0.688    2.763   32.377   25.954    0.430 
 2793   53.266    0.689    2.764   32.377   25.954    0.430 
 2795   53.552    0.689    2.764   32.377   25.954    0.430 
 2796   53.838    0.689    2.764   32.377   25.954    0.430 
 2799   54.124    0.689    2.764   32.378   25.955    0.420 
 2800   54.409    0.689    2.764   32.379   25.956    0.420 
 2803   54.695    0.696    2.764   32.380   25.956    0.420 
 2805   54.981    0.703    2.765   32.383   25.958    0.420 
 2809   55.267    0.720    2.767   32.385   25.958    0.420 
 2811   55.553    0.730    2.768   32.385   25.958    0.420 
 2815   55.839    0.757    2.770   32.386   25.959    0.420 
 2818   56.125    0.758    2.772   32.418   25.983    0.410 
 2824   56.411    0.758    2.772   32.418   25.983    0.410 
 2831   56.697    0.755    2.772   32.421   25.986    0.400 
 2835   56.983    0.755    2.772   32.421   25.986    0.400 
 2839   57.269    0.755    2.772   32.421   25.986    0.400 
 2841   57.554    0.756    2.773   32.422   25.986    0.390 
 2844   57.840    0.758    2.773   32.422   25.987    0.390 
 2846   58.126    0.758    2.773   32.423   25.987    0.390 
 2848   58.412    0.760    2.773   32.423   25.987    0.390 
 2849   58.698    0.763    2.773   32.423   25.987    0.390 
 2852   58.984    0.766    2.774   32.424   25.988    0.390 
 2853   59.270    0.767    2.774   32.424   25.988    0.390 
 2857   59.556    0.769    2.774   32.425   25.988    0.390 
 2858   59.842    0.770    2.774   32.425   25.988    0.390 
 2859   60.128    0.770    2.774   32.425   25.988    0.390 
 2862   60.414    0.776    2.775   32.425   25.989    0.380 
 2864   60.699    0.781    2.775   32.426   25.989    0.380 
 2867   60.985    0.782    2.775   32.427   25.989    0.380 
 2871   61.271    0.788    2.776   32.427   25.989    0.380 
 2874   61.557    0.796    2.777   32.429   25.990    0.380 
 2875   61.843    0.797    2.777   32.430   25.991    0.380 
 2878   62.129    0.798    2.777   32.431   25.991    0.380 
 2880   62.415    0.810    2.778   32.431   25.991    0.380 
 2882   62.701    0.815    2.778   32.431   25.992    0.380 
 2883   62.987    0.815    2.779   32.436   25.995    0.380 
 2884   63.273    0.815    2.779   32.437   25.996    0.380 
 2887   63.559    0.815    2.779   32.440   25.998    0.380 
 2889   63.844    0.815    2.779   32.440   25.998    0.380 
 2892   64.130    0.815    2.779   32.441   25.999    0.380 
 2894   64.416    0.813    2.779   32.443   26.000    0.380 
 2897   64.702    0.812    2.779   32.446   26.003    0.370 
 2901   64.988    0.812    2.779   32.446   26.003    0.370 
 2905   65.274    0.811    2.780   32.453   26.008    0.370 
 2908   65.560    0.811    2.780   32.456   26.011    0.370 
 2914   65.846    0.810    2.780   32.457   26.012    0.370 
 2917   66.132    0.808    2.780   32.457   26.012    0.370 
 2920   66.704    0.807    2.780   32.458   26.013    0.370 
 2924   66.989    0.803    2.780   32.458   26.013    0.370 
 2926   67.275    0.802    2.779   32.458   26.013    0.370 
 2928   67.561    0.800    2.779   32.458   26.013    0.370 
 2932   67.847    0.798    2.779   32.458   26.014    0.370 
 2934   68.133    0.798    2.779   32.458   26.014    0.370 
 2937   68.419    0.798    2.779   32.458   26.014    0.370 
 2940   68.705    0.797    2.779   32.458   26.014    0.370 
 2941   68.991    0.797    2.779   32.458   26.014    0.370 
 2942   69.277    0.797    2.779   32.458   26.014    0.370 
 2945   69.563    0.797    2.779   32.458   26.014    0.370 
 2948   69.849    0.797    2.779   32.459   26.014    0.370 
 2950   70.135    0.797    2.779   32.459   26.014    0.370 
 2952   70.420    0.797    2.779   32.459   26.014    0.370 
 2955   70.706    0.794    2.779   32.460   26.015    0.370 
 2957   70.992    0.793    2.779   32.461   26.016    0.370 
 2958   71.278    0.793    2.779   32.461   26.016    0.370 
 2961   71.564    0.793    2.779   32.461   26.016    0.370 
 2962   71.850    0.793    2.779   32.462   26.016    0.370 
 2965   72.136    0.793    2.780   32.465   26.019    0.370 
 2966   72.422    0.793    2.780   32.465   26.019    0.370 
 2967   72.708    0.794    2.780   32.465   26.019    0.370 
 2970   72.994    0.802    2.780   32.465   26.019    0.370 
 2971   73.280    0.803    2.780   32.465   26.019    0.370 
 2974   73.565    0.809    2.781   32.465   26.019    0.370 
 2976   73.851    0.812    2.781   32.466   26.019    0.400 
 2981   74.137    0.828    2.783   32.470   26.021    0.400 
 2986   74.423    0.847    2.785   32.474   26.023    0.400 
 2991   74.709    0.878    2.788   32.483   26.029    0.400 
 2997   74.995    0.895    2.790   32.494   26.037    0.390 
 2999   75.281    0.896    2.790   32.495   26.037    0.380 
 3003   75.567    0.897    2.791   32.498   26.040    0.380 
 3006   75.853    0.899    2.791   32.498   26.040    0.380 
 3009   76.139    0.904    2.792   32.501   26.042    0.370 
 3010   76.425    0.906    2.792   32.501   26.042    0.370 
 3012   76.711    0.913    2.793   32.508   26.047    0.370 
 3015   76.996    0.913    2.793   32.515   26.053    0.370 
 3018   77.282    0.913    2.794   32.520   26.056    0.370 
 3020   77.568    0.913    2.794   32.522   26.058    0.370 
 3022   77.854    0.913    2.794   32.523   26.059    0.370 
 3025   78.140    0.912    2.794   32.524   26.060    0.360 
 3028   78.426    0.910    2.794   32.526   26.062    0.360 
 3029   78.712    0.910    2.794   32.526   26.062    0.360 
 3032   78.998    0.906    2.794   32.530   26.065    0.350 
 3033   79.284    0.906    2.794   32.530   26.065    0.350 
 3037   79.570    0.904    2.794   32.532   26.067    0.350 
 3038   79.856    0.904    2.794   32.532   26.067    0.340 
 3040   80.141    0.902    2.794   32.533   26.068    0.340 
 3042   80.427    0.897    2.794   32.539   26.073    0.340 
 3044   80.713    0.893    2.794   32.544   26.077    0.340 
 3046   80.999    0.891    2.794   32.546   26.079    0.340 
 3048   81.285    0.889    2.794   32.549   26.081    0.340 
 3049   81.571    0.888    2.794   32.549   26.082    0.340 
 3051   81.857    0.887    2.794   32.551   26.083    0.340 
 3054   82.143    0.884    2.794   32.553   26.085    0.340 
 3056   82.429    0.884    2.794   32.553   26.085    0.340 
 3059   82.715    0.882    2.794   32.554   26.086    0.340 
 3062   83.001    0.881    2.794   32.555   26.087    0.340 
 3065   83.287    0.881    2.794   32.555   26.087    0.340 
 3069   83.572    0.881    2.794   32.555   26.087    0.340 
 3076   83.858    0.881    2.795   32.559   26.089    0.340 
 3081   84.144    0.880    2.795   32.559   26.090    0.330 
 3083   84.430    0.879    2.795   32.560   26.091    0.330 
 3085   84.716    0.877    2.795   32.562   26.093    0.330 
 3088   85.002    0.873    2.794   32.565   26.095    0.330 
 3089   85.288    0.872    2.794   32.565   26.095    0.330 
 3092   85.574    0.866    2.794   32.568   26.098    0.330 
 3095   85.860    0.863    2.794   32.570   26.100    0.330 
 3098   86.146    0.861    2.794   32.570   26.100    0.330 
 3100   86.432    0.857    2.794   32.571   26.101    0.330 
 3103   86.718    0.844    2.793   32.573   26.103    0.330 
 3106   87.003    0.841    2.793   32.575   26.105    0.330 
 3108   87.289    0.840    2.793   32.576   26.106    0.330 
 3111   87.861    0.839    2.793   32.576   26.106    0.330 
 3115   88.147    0.830    2.793   32.584   26.113    0.330 
 3119   88.433    0.826    2.792   32.587   26.115    0.330 
 3121   88.719    0.826    2.792   32.587   26.116    0.340 
 3122   89.005    0.825    2.792   32.587   26.116    0.340 
 3123   89.291    0.825    2.792   32.587   26.116    0.340 
