NAFC_Y2K_HEADER
48100073  59 19.90 -060 20.70 2005-08-04 12:19 0477 S0847 52  t fish set 52    1
48100073 002721  1.00 A 06 #PTCSM--------------            B 000 0000 0431 000 4
48100073 8 05 01 02 1021.0 -00.0 -00.0 02 00 20 02 01                          8
-- CHANNEL STATS -->
# span     scan =    446.000,  3166.000
# span     pres =      0.781,   431.945
# span     temp =     -0.009,     3.903
# span     cond =      2.756,     3.218
# span      sal =     32.297,    34.783
# span     sigt =     25.667,    27.863
-- END --
!! ACQUIRED USING > AQUIRE 4.011     AT 2005-08-04 12:53:46
cast 0  08/04  11:55:33   samples 0 to 3374  stop = switch off
-- HISTORY --> Thu Sep 22 12:14:25 2005
>READ # (DP) T C scan pres temp cond
>STABILIZE_RESTRICT USING= pres 15.0 5
>RESTRICT USING= pres 0.0 2000.0
>RESTRICT USING= cond 2.0 5.0
>RESTRICT USING= temp -2.0 22.0
>MEDIANFILTER pres 7 1
>MEDIANFILTER temp 7 1
>MEDIANFILTER cond 7 1
>SALINITY PRESSURE=pres CONDUCTIVITY=cond TEMPERATURE=temp RESULT=sal
>RESTRICT USING= sal 28.0 36.0
>MEDIANFILTER sal 7 1
>SIGMAT SALINITY=sal TEMPERATURE=temp RESULT=sigt
>MEDIANFILTER sigt 7 1
>HISTORY_ON
>WRITEFILE  .p???? scan pres temp cond sal sigt
-- END --
 scan     pres     temp     cond      sal     sigt 
-- DATA --
  446    9.953    3.261    2.978   32.441   25.820 
  447    9.953    3.313    2.980   32.409   25.790 
  448    9.953    3.324    2.980   32.406   25.786 
  449    9.953    3.342    2.984   32.406   25.785 
  450    9.953    3.402    2.986   32.393   25.770 
  451    9.953    3.414    2.987   32.393   25.768 
  452    9.953    3.422    2.988   32.393   25.767 
  453    9.953    3.432    2.988   32.391   25.764 
  454    9.953    3.470    2.990   32.379   25.752 
  455    9.953    3.533    2.991   32.319   25.698 
  456    9.953    3.533    2.991   32.319   25.698 
  457    9.953    3.533    2.991   32.319   25.698 
  458    9.953    3.533    2.990   32.319   25.698 
  459    9.953    3.459    2.986   32.335   25.718 
  460    9.953    3.340    2.981   32.335   25.729 
  461    9.953    3.247    2.977   32.401   25.790 
  462    9.953    3.187    2.972   32.441   25.827 
  463    9.953    3.145    2.959   32.446   25.834 
  464   10.223    2.974    2.959   32.463   25.863 
  465   10.223    2.918    2.951   32.489   25.888 
  466   10.493    2.855    2.949   32.491   25.895 
  467   10.493    2.834    2.947   32.491   25.897 
  468   10.763    2.818    2.946   32.490   25.897 
  469   11.033    2.813    2.945   32.490   25.897 
  470   11.302    2.809    2.945   32.489   25.897 
  471   11.572    2.806    2.944   32.484   25.894 
  472   11.842    2.802    2.943   32.482   25.894 
  473   12.112    2.796    2.943   32.482   25.894 
  474   12.381    2.782    2.940   32.482   25.894 
  475   12.381    2.750    2.938   32.482   25.897 
  476   12.651    2.731    2.938   32.486   25.901 
  477   13.191    2.731    2.938   32.486   25.901 
  478   13.191    2.731    2.938   32.486   25.901 
  479   13.730    2.731    2.938   32.486   25.902 
  480   14.000    2.726    2.938   32.491   25.906 
  481   14.540    2.725    2.938   32.491   25.906 
  482   15.079    2.725    2.938   32.491   25.906 
  483   15.619    2.702    2.937   32.504   25.918 
  484   16.158    2.661    2.934   32.513   25.928 
  485   16.158    2.625    2.933   32.526   25.942 
  486   16.428    2.599    2.931   32.528   25.946 
  487   16.698    2.572    2.929   32.536   25.954 
  488   16.698    2.561    2.928   32.538   25.956 
  489   16.968    2.550    2.927   32.540   25.959 
  490   17.237    2.539    2.927   32.541   25.961 
  491   17.237    2.531    2.926   32.541   25.962 
  492   17.507    2.525    2.926   32.542   25.963 
  493   17.777    2.518    2.925   32.544   25.965 
  494   18.047    2.493    2.922   32.546   25.969 
  495   18.586    2.440    2.920   32.559   25.983 
  496   19.126    2.412    2.918   32.566   25.991 
  497   19.665    2.391    2.917   32.574   25.999 
  498   20.205    2.368    2.916   32.575   26.002 
  499   20.475    2.355    2.914   32.583   26.009 
  500   20.744    2.305    2.911   32.590   26.018 
  501   20.744    2.272    2.909   32.590   26.021 
  502   21.014    2.225    2.906   32.611   26.041 
  503   21.284    2.184    2.903   32.613   26.046 
  504   21.554    2.149    2.901   32.618   26.052 
  505   21.824    2.108    2.898   32.628   26.064 
  506   21.824    2.078    2.897   32.642   26.077 
  507   22.363    2.049    2.895   32.642   26.079 
  508   22.633    2.049    2.895   32.642   26.079 
  509   23.442    2.049    2.895   32.644   26.079 
  510   23.712    2.049    2.894   32.644   26.079 
  511   24.252    2.033    2.893   32.639   26.079 
  512   24.791    2.023    2.893   32.636   26.079 
  513   25.061    2.020    2.892   32.636   26.079 
  514   25.600    2.020    2.891   32.639   26.079 
  515   25.870    1.966    2.887   32.644   26.087 
  516   26.410    1.892    2.883   32.652   26.099 
  517   26.680    1.864    2.881   32.660   26.107 
  518   26.680    1.831    2.877   32.666   26.114 
  519   27.219    1.766    2.875   32.689   26.138 
  520   27.219    1.728    2.874   32.707   26.155 
  521   27.759    1.713    2.873   32.713   26.160 
  522   27.759    1.703    2.871   32.713   26.161 
  523   28.028    1.673    2.870   32.715   26.165 
  524   28.028    1.652    2.868   32.715   26.166 
  525   28.568    1.623    2.865   32.715   26.168 
  526   29.107    1.594    2.863   32.719   26.173 
  527   29.377    1.549    2.861   32.733   26.188 
  528   29.647    1.496    2.857   32.736   26.193 
  529   29.917    1.467    2.856   32.742   26.200 
  530   30.187    1.464    2.856   32.757   26.212 
  531   30.456    1.443    2.853   32.758   26.215 
  532   30.996    1.389    2.849   32.758   26.219 
  533   31.266    1.362    2.849   32.757   26.219 
  534   31.805    1.327    2.844   32.757   26.221 
  535   32.615    1.268    2.837   32.758   26.226 
  536   33.154    1.139    2.827   32.763   26.238 
  537   33.154    1.048    2.822   32.763   26.244 
  538   33.424    0.965    2.816   32.780   26.263 
  539   33.963    0.874    2.811   32.803   26.286 
  540   34.503    0.808    2.808   32.833   26.314 
  541   34.773    0.748    2.803   32.837   26.321 
  542   35.043    0.658    2.797   32.851   26.338 
  543   35.312    0.609    2.795   32.869   26.355 
  544   35.852    0.593    2.793   32.873   26.359 
  545   36.391    0.563    2.791   32.875   26.362 
  546   36.931    0.530    2.790   32.877   26.365 
  547   37.201    0.529    2.789   32.876   26.366 
  548   37.471    0.525    2.788   32.877   26.366 
  549   38.010    0.500    2.786   32.883   26.372 
  550   38.280    0.488    2.785   32.883   26.373 
  551   38.550    0.458    2.783   32.883   26.375 
  552   39.089    0.440    2.782   32.884   26.376 
  553   39.359    0.421    2.780   32.884   26.377 
  554   40.168    0.385    2.779   32.884   26.379 
  555   40.708    0.359    2.775   32.885   26.381 
  556   41.247    0.312    2.771   32.885   26.384 
  557   41.787    0.264    2.767   32.889   26.389 
  558   42.327    0.219    2.764   32.889   26.391 
  559   42.596    0.200    2.764   32.909   26.408 
  560   43.136    0.193    2.764   32.916   26.415 
  561   43.676    0.193    2.764   32.916   26.415 
  562   43.945    0.193    2.764   32.920   26.418 
  563   44.215    0.193    2.765   32.932   26.428 
  564   44.755    0.199    2.766   32.933   26.428 
  565   45.024    0.205    2.767   32.937   26.431 
  566   45.294    0.209    2.767   32.941   26.434 
  567   45.564    0.214    2.768   32.946   26.438 
  568   45.834    0.216    2.769   32.948   26.439 
  569   46.373    0.217    2.769   32.949   26.440 
  570   46.643    0.222    2.770   32.953   26.443 
  571   47.183    0.225    2.770   32.954   26.443 
  572   47.452    0.226    2.770   32.956   26.445 
  573   47.722    0.227    2.770   32.957   26.446 
  574   48.262    0.229    2.771   32.958   26.447 
  575   49.071    0.231    2.771   32.958   26.447 
  576   49.341    0.233    2.771   32.961   26.449 
  577   50.150    0.234    2.772   32.963   26.450 
  578   50.420    0.236    2.772   32.963   26.450 
  579   50.960    0.236    2.772   32.963   26.450 
  580   51.229    0.237    2.772   32.963   26.450 
  581   51.499    0.238    2.772   32.960   26.448 
  582   51.769    0.238    2.772   32.960   26.447 
  583   52.039    0.239    2.772   32.958   26.446 
  584   52.848    0.243    2.772   32.953   26.442 
  585   53.388    0.249    2.772   32.949   26.439 
  586   53.927    0.251    2.772   32.947   26.437 
  587   54.467    0.251    2.772   32.947   26.437 
  588   54.467    0.251    2.772   32.947   26.437 
  589   55.276    0.251    2.772   32.947   26.437 
  590   55.546    0.241    2.771   32.947   26.437 
  591   56.355    0.225    2.771   32.961   26.449 
  592   56.895    0.212    2.771   32.974   26.460 
  593   57.434    0.195    2.771   32.992   26.475 
  594   57.974    0.188    2.771   32.999   26.482 
  595   59.053    0.183    2.771   33.011   26.491 
  596   59.593    0.176    2.771   33.019   26.499 
  597   60.132    0.170    2.772   33.030   26.508 
  598   60.672    0.169    2.772   33.033   26.510 
  599   61.211    0.168    2.772   33.036   26.512 
  600   61.481    0.166    2.772   33.038   26.514 
  601   62.021    0.163    2.772   33.041   26.517 
  602   62.290    0.155    2.772   33.049   26.524 
  603   62.560    0.147    2.772   33.058   26.531 
  604   63.100    0.139    2.772   33.060   26.533 
  605   63.370    0.127    2.771   33.062   26.536 
  606   63.909    0.126    2.771   33.068   26.540 
  607   64.449    0.111    2.771   33.076   26.547 
  608   64.718    0.109    2.770   33.076   26.547 
  609   64.718    0.106    2.770   33.076   26.548 
  610   65.258    0.102    2.770   33.077   26.549 
  611   66.067    0.097    2.769   33.077   26.549 
  612   66.607    0.088    2.769   33.078   26.550 
  613   67.147    0.071    2.768   33.079   26.552 
  614   67.686    0.056    2.767   33.086   26.559 
  615   68.226    0.052    2.767   33.087   26.560 
  616   68.495    0.046    2.766   33.087   26.560 
  617   69.035    0.044    2.766   33.089   26.561 
  618   69.575    0.038    2.766   33.090   26.562 
  619   70.114    0.038    2.766   33.090   26.563 
  620   70.924    0.034    2.766   33.091   26.564 
  621   71.193    0.029    2.765   33.091   26.564 
  622   71.733    0.025    2.765   33.091   26.564 
  623   72.542    0.021    2.765   33.093   26.566 
  624   73.082    0.019    2.765   33.093   26.566 
  625   73.352    0.016    2.765   33.096   26.568 
  626   73.621    0.014    2.765   33.097   26.569 
  627   74.431    0.013    2.764   33.097   26.570 
  628   75.240    0.012    2.764   33.098   26.570 
  629   76.049    0.011    2.764   33.098   26.570 
  630   76.859    0.004    2.764   33.104   26.576 
  631   77.129    0.000    2.765   33.111   26.581 
  632   77.938   -0.008    2.765   33.119   26.589 
  633   78.208   -0.008    2.765   33.121   26.590 
  634   78.747   -0.008    2.765   33.128   26.595 
  635   79.017   -0.008    2.766   33.132   26.599 
  636   79.557   -0.008    2.766   33.138   26.604 
  637   80.096   -0.008    2.766   33.142   26.607 
  638   80.366   -0.008    2.767   33.153   26.615 
  639   80.906   -0.008    2.768   33.159   26.620 
  640   81.445   -0.008    2.769   33.169   26.629 
  641   81.715   -0.009    2.769   33.179   26.637 
  642   82.255   -0.009    2.770   33.187   26.643 
  643   82.794   -0.009    2.771   33.200   26.654 
  644   83.873   -0.009    2.772   33.212   26.664 
  645   84.413   -0.009    2.773   33.221   26.670 
  646   85.222   -0.008    2.773   33.228   26.676 
  647   85.492   -0.006    2.774   33.232   26.679 
  648   85.762   -0.005    2.774   33.241   26.687 
  649   86.032   -0.005    2.775   33.247   26.692 
  650   86.571   -0.004    2.776   33.257   26.699 
  651   87.111    0.004    2.780   33.301   26.733 
  652   87.920    0.044    2.783   33.302   26.734 
  653   88.999    0.064    2.785   33.303   26.734 
  654   89.539    0.074    2.786   33.304   26.735 
  655   90.078    0.081    2.787   33.312   26.740 
  656   90.618    0.082    2.787   33.314   26.741 
  657   90.618    0.089    2.790   33.340   26.762 
  658   91.158    0.114    2.792   33.344   26.764 
  659   91.967    0.171    2.802   33.411   26.811 
  660   92.776    0.235    2.808   33.415   26.814 
  661   93.586    0.295    2.813   33.415   26.815 
  662   94.125    0.355    2.820   33.445   26.833 
  663   94.935    0.420    2.826   33.450   26.833 
  664   95.474    0.452    2.829   33.453   26.834 
  665   96.014    0.468    2.830   33.454   26.834 
  666   96.553    0.484    2.832   33.462   26.840 
  667   96.823    0.496    2.833   33.464   26.840 
  668   97.363    0.503    2.835   33.472   26.847 
  669   97.633    0.512    2.836   33.480   26.853 
  670   98.172    0.524    2.838   33.488   26.857 
  671   98.712    0.538    2.839   33.488   26.858 
  672   99.251    0.545    2.839   33.490   26.858 
  673   99.791    0.551    2.841   33.498   26.864 
  674  100.330    0.561    2.842   33.499   26.865 
  675  101.140    0.567    2.842   33.502   26.867 
  676  101.949    0.571    2.843   33.503   26.867 
  677  102.759    0.574    2.843   33.503   26.867 
  678  103.028    0.577    2.844   33.504   26.868 
  679  103.298    0.580    2.844   33.506   26.869 
  680  104.108    0.581    2.844   33.511   26.873 
  681  104.647    0.585    2.845   33.512   26.874 
  682  104.917    0.590    2.846   33.519   26.879 
  683  105.726    0.600    2.847   33.520   26.880 
  684  106.266    0.612    2.848   33.527   26.884 
  685  106.805    0.620    2.850   33.539   26.893 
  686  107.345    0.622    2.850   33.542   26.896 
  687  107.615    0.624    2.851   33.542   26.896 
  688  108.154    0.624    2.851   33.546   26.899 
  689  108.964    0.624    2.851   33.550   26.902 
  690  109.773    0.624    2.852   33.553   26.905 
  691  110.583    0.624    2.852   33.554   26.905 
  692  111.122    0.624    2.852   33.555   26.906 
  693  111.932    0.626    2.853   33.565   26.914 
  694  112.471    0.649    2.860   33.629   26.949 
  695  113.011    0.768    2.873   33.629   26.949 
  696  113.550    0.874    2.879   33.629   26.949 
  697  114.090    0.910    2.882   33.629   26.949 
  698  114.360    0.927    2.883   33.630   26.949 
  699  114.629    0.944    2.884   33.630   26.949 
  700  115.169    0.953    2.885   33.630   26.949 
  701  115.709    0.962    2.886   33.633   26.949 
  702  116.248    0.970    2.888   33.646   26.958 
  703  116.518    0.986    2.889   33.647   26.958 
  704  117.327    0.998    2.891   33.648   26.959 
  705  117.867    1.022    2.896   33.687   26.988 
  706  118.946    1.082    2.902   33.693   26.989 
  707  120.025    1.128    2.905   33.697   26.989 
  708  120.565    1.154    2.907   33.699   26.990 
  709  121.374    1.163    2.909   33.699   26.990 
  710  121.644    1.175    2.910   33.702   26.990 
  711  121.914    1.183    2.911   33.710   26.996 
  712  122.184    1.193    2.912   33.714   26.999 
  713  122.723    1.202    2.913   33.716   27.000 
  714  123.263    1.209    2.915   33.729   27.010 
  715  123.802    1.229    2.917   33.737   27.015 
  716  124.072    1.248    2.920   33.747   27.022 
  717  124.882    1.281    2.923   33.759   27.029 
  718  125.151    1.310    2.927   33.770   27.036 
  719  125.691    1.367    2.934   33.803   27.056 
  720  126.770    1.438    2.940   33.805   27.059 
  721  127.849    1.540    2.952   33.845   27.078 
  722  128.659    1.653    2.964   33.867   27.078 
  723  129.198    1.747    2.972   33.868   27.078 
  724  129.738    1.834    2.980   33.868   27.078 
  725  130.278    1.910    2.987   33.870   27.078 
  726  130.547    1.959    2.990   33.879   27.078 
  727  130.817    1.987    2.992   33.880   27.078 
  728  131.357    1.994    2.995   33.885   27.079 
  729  131.896    2.027    2.997   33.893   27.083 
  730  132.166    2.056    3.001   33.901   27.087 
  731  132.436    2.086    3.005   33.918   27.098 
  732  132.976    2.116    3.009   33.934   27.109 
  733  133.515    2.219    3.021   33.977   27.125 
  734  133.785    2.360    3.038   33.979   27.130 
  735  134.325    2.579    3.057   34.007   27.131 
  736  135.134    2.738    3.068   34.032   27.131 
  737  135.943    2.814    3.073   34.035   27.130 
  738  136.753    2.886    3.086   34.043   27.130 
  739  137.292    3.046    3.101   34.059   27.130 
  740  137.562    3.202    3.113   34.060   27.125 
  741  138.102    3.249    3.116   34.067   27.125 
  742  138.641    3.274    3.119   34.079   27.125 
  743  139.181    3.280    3.121   34.079   27.125 
  744  139.721    3.285    3.122   34.086   27.129 
  745  140.530    3.285    3.123   34.091   27.134 
  746  141.070    3.285    3.124   34.101   27.141 
  747  141.609    3.285    3.124   34.103   27.142 
  748  142.149    3.284    3.124   34.103   27.143 
  749  142.419    3.278    3.124   34.109   27.149 
  750  143.228    3.273    3.124   34.114   27.153 
  751  143.768    3.250    3.124   34.136   27.172 
  752  144.847    3.233    3.124   34.153   27.188 
  753  145.656    3.225    3.124   34.161   27.195 
  754  146.196    3.220    3.124   34.166   27.199 
  755  147.005    3.218    3.124   34.174   27.206 
  756  147.545    3.217    3.124   34.175   27.206 
  757  147.815    3.216    3.124   34.176   27.207 
  758  148.354    3.212    3.124   34.181   27.212 
  759  148.894    3.207    3.124   34.186   27.217 
  760  149.164    3.203    3.124   34.193   27.222 
  761  149.433    3.201    3.124   34.195   27.224 
  762  150.243    3.199    3.124   34.196   27.225 
  763  150.782    3.195    3.124   34.200   27.229 
  764  151.052    3.191    3.125   34.206   27.234 
  765  151.592    3.190    3.125   34.209   27.236 
  766  152.131    3.189    3.125   34.210   27.237 
  767  152.671    3.189    3.125   34.211   27.238 
  768  153.750    3.189    3.125   34.213   27.239 
  769  154.020    3.188    3.125   34.214   27.240 
  770  154.560    3.187    3.125   34.216   27.243 
  771  155.099    3.186    3.125   34.217   27.243 
  772  155.369    3.186    3.125   34.219   27.244 
  773  155.639    3.186    3.125   34.219   27.245 
  774  156.178    3.186    3.125   34.219   27.245 
  775  157.258    3.186    3.126   34.220   27.245 
  776  158.067    3.185    3.126   34.222   27.247 
  777  158.607    3.185    3.126   34.222   27.247 
  778  159.146    3.185    3.126   34.222   27.247 
  779  159.416    3.185    3.126   34.223   27.248 
  780  159.686    3.185    3.126   34.224   27.249 
  781  160.495    3.185    3.126   34.224   27.249 
  782  161.035    3.185    3.126   34.224   27.249 
  783  162.114    3.185    3.126   34.224   27.249 
  784  162.654    3.185    3.126   34.225   27.250 
  785  163.463    3.185    3.126   34.225   27.250 
  786  164.003    3.185    3.127   34.229   27.253 
  787  164.542    3.189    3.127   34.231   27.254 
  788  165.082    3.192    3.127   34.232   27.254 
  789  165.352    3.193    3.128   34.232   27.254 
  790  165.891    3.195    3.128   34.233   27.255 
  791  165.891    3.196    3.128   34.233   27.255 
  792  166.701    3.197    3.128   34.233   27.255 
  793  167.240    3.197    3.128   34.235   27.256 
  794  167.780    3.199    3.129   34.238   27.258 
  795  168.050    3.203    3.129   34.238   27.258 
  796  168.589    3.208    3.130   34.244   27.262 
  797  169.399    3.222    3.131   34.245   27.263 
  798  170.208    3.246    3.134   34.255   27.268 
  799  171.018    3.276    3.138   34.264   27.271 
  800  171.557    3.305    3.141   34.268   27.272 
  801  171.827    3.325    3.142   34.269   27.272 
  802  172.367    3.335    3.143   34.271   27.272 
  803  172.906    3.348    3.146   34.282   27.278 
  804  173.446    3.368    3.148   34.283   27.278 
  805  173.985    3.385    3.149   34.284   27.278 
