NAFC_Y2K_HEADER
48104029  58  7.78 -059 54.66 2009-07-24 12:54 0254 S4776 24t t repeat set     1
48104029 002267  1.00 A 06 #PTCSM--------------            B 000 9999 -999 000 4
48104029 3 30 02 02 1019.0 000.0 000.0 02 01 30 02 01                          8
-- CHANNEL STATS -->
# span     scan =    222.000,  2488.000
# span     pres =      0.289,   244.118
# span     temp =     -1.019,     4.606
# span     cond =      2.672,     3.098
# span      sal =     31.419,    34.396
# span     sigt =     24.879,    27.433
-- END --
!! ACQUIRED USING > AQUIRE 4.012     AT 2009-07-24 11:11:14
cast   1 24 Jul 2009 05:21:18 samples 1 to 2996, avg = 4, stop = mag switch
-- HISTORY --> Tue Sep 15 14:22:52 2009
>READ # (DP) T C scan pres temp cond
>STABILIZE_RESTRICT USING= pres  5.0 5
>RESTRICT USING= pres 0.0 2000.0
>RESTRICT USING= cond 2.0 5.0
>RESTRICT USING= temp -1.9 22.0
>MEDIANFILTER pres 7 1
>MEDIANFILTER temp 7 1
>MEDIANFILTER cond 7 1
>SALINITY PRESSURE=pres CONDUCTIVITY=cond TEMPERATURE=temp RESULT=sal
>RESTRICT USING= sal 25.0 36.0
>MEDIANFILTER sal 7 1
>SIGMAT SALINITY=sal TEMPERATURE=temp RESULT=sigt
>MEDIANFILTER sigt 7 1
>HISTORY_ON
>WRITEFILE  .p???? scan pres temp cond sal sigt
-- END --
 scan     pres     temp     cond      sal     sigt 
-- DATA --
  222    0.915    4.606    3.002   31.419   24.879 
  223    1.044    4.606    3.042   31.871   25.237 
  224    1.194    4.604    3.027   31.710   25.110 
  225    1.291    4.602    3.034   31.792   25.175 
  226    1.399    4.602    3.034   31.792   25.175 
  227    1.474    4.600    3.033   31.792   25.175 
  228    1.603    4.594    3.034   31.800   25.182 
  229    1.818    4.594    3.039   31.849   25.221 
  230    2.227    4.592    3.040   31.872   25.240 
  231    2.840    4.591    3.040   31.873   25.241 
  232    3.454    4.589    3.040   31.874   25.242 
  233    4.045    4.556    3.041   31.913   25.276 
  234    4.583    4.541    3.042   31.941   25.299 
  235    5.110    4.541    3.042   31.941   25.299 
  236    5.648    4.541    3.042   31.941   25.299 
  237    6.218    4.541    3.042   31.941   25.299 
  238    6.789    4.545    3.042   31.936   25.295 
  239    7.337    4.549    3.041   31.921   25.283 
  240    7.864    4.549    3.041   31.921   25.283 
  241    8.359    4.551    3.041   31.921   25.283 
  431    8.777    3.469    2.964   32.054   25.493 
  432    8.928    3.483    2.964   32.047   25.486 
  433    9.024    3.483    2.962   32.032   25.474 
  434    9.078    3.483    2.962   32.032   25.474 
  435    9.175    3.483    2.961   32.015   25.461 
  436    9.261    3.477    2.961   32.011   25.458 
  437    9.304    3.445    2.955   31.981   25.439 
  438    9.422    3.440    2.953   31.981   25.439 
  439    9.605    3.432    2.953   31.981   25.439 
  440    9.777    3.422    2.953   31.981   25.439 
  441    9.981    3.380    2.953   31.990   25.450 
  442   10.175    3.369    2.952   31.999   25.458 
  443   10.390    3.342    2.947   32.010   25.469 
  444   10.637    3.270    2.942   32.017   25.482 
  445   10.938    3.203    2.939   32.019   25.489 
  446   11.239    3.148    2.933   32.025   25.499 
  447   11.551    3.088    2.931   32.041   25.516 
  448   11.863    3.046    2.928   32.041   25.520 
  449   12.175    3.001    2.924   32.041   25.523 
  450   12.498    2.950    2.920   32.041   25.528 
  451   12.810    2.891    2.912   32.045   25.536 
  452   13.122    2.790    2.904   32.042   25.542 
  453   13.455    2.679    2.899   32.045   25.553 
  454   13.799    2.599    2.892   32.042   25.557 
  455   14.144    2.484    2.881   32.056   25.578 
  456   14.509    2.364    2.875   32.060   25.590 
  457   14.864    2.253    2.861   32.060   25.599 
  458   15.198    2.095    2.851   32.079   25.625 
  459   15.553    1.972    2.845   32.092   25.645 
  460   15.886    1.881    2.836   32.105   25.661 
  461   16.220    1.797    2.831   32.118   25.677 
  462   16.575    1.733    2.827   32.118   25.682 
  463   16.940    1.685    2.823   32.118   25.685 
  464   17.295    1.635    2.819   32.118   25.689 
  465   17.683    1.567    2.811   32.121   25.696 
  466   18.048    1.421    2.792   32.121   25.705 
  467   18.414    1.180    2.779   32.121   25.720 
  468   18.758    1.027    2.775   32.189   25.784 
  469   19.070    0.956    2.771   32.215   25.809 
  470   19.404    0.896    2.768   32.221   25.818 
  471   19.780    0.861    2.765   32.232   25.828 
  472   20.125    0.814    2.760   32.237   25.835 
  473   20.490    0.746    2.756   32.242   25.842 
  474   20.856    0.688    2.752   32.252   25.854 
  475   21.222    0.627    2.749   32.272   25.873 
  476   21.577    0.578    2.746   32.284   25.886 
  477   21.921    0.528    2.744   32.306   25.906 
  478   22.276    0.496    2.742   32.316   25.916 
  479   22.631    0.472    2.740   32.318   25.919 
  480   23.008    0.440    2.738   32.319   25.921 
  481   23.406    0.402    2.735   32.332   25.933 
  482   23.750    0.364    2.735   32.351   25.950 
  483   24.148    0.347    2.733   32.357   25.957 
  484   24.482    0.310    2.730   32.360   25.961 
  485   24.826    0.253    2.726   32.364   25.966 
  486   25.192    0.203    2.726   32.376   25.979 
  487   25.547    0.184    2.721   32.387   25.989 
  488   25.923    0.111    2.716   32.412   26.012 
  489   26.310    0.037    2.713   32.420   26.022 
  490   26.698   -0.039    2.708   32.438   26.040 
  491   27.085   -0.112    2.704   32.465   26.065 
  492   27.472   -0.183    2.701   32.496   26.094 
  493   27.859   -0.242    2.699   32.525   26.119 
  494   28.268   -0.295    2.695   32.530   26.125 
  495   28.655   -0.353    2.691   32.550   26.144 
  496   29.096   -0.403    2.690   32.579   26.169 
  497   29.516   -0.428    2.688   32.587   26.177 
  498   29.936   -0.453    2.687   32.603   26.191 
  499   30.355   -0.472    2.686   32.605   26.193 
  500   30.796   -0.496    2.685   32.619   26.206 
  501   31.226   -0.520    2.684   32.633   26.218 
  502   31.668   -0.552    2.682   32.637   26.222 
  503   32.087   -0.597    2.679   32.648   26.233 
  504   32.496   -0.639    2.679   32.693   26.271 
  505   32.969   -0.650    2.679   32.702   26.279 
  506   33.389   -0.659    2.679   32.711   26.286 
  507   33.830   -0.675    2.678   32.719   26.293 
  508   34.271   -0.698    2.678   32.740   26.311 
  509   34.733   -0.700    2.678   32.741   26.312 
  510   35.185   -0.711    2.678   32.749   26.319 
  511   35.648   -0.726    2.678   32.764   26.332 
  512   36.132   -0.733    2.678   32.771   26.337 
  513   36.605   -0.739    2.678   32.777   26.343 
  514   37.046   -0.743    2.677   32.779   26.344 
  515   37.508   -0.749    2.677   32.783   26.348 
  516   37.960   -0.757    2.677   32.790   26.354 
  517   38.423   -0.766    2.677   32.797   26.359 
  518   38.896   -0.794    2.676   32.805   26.367 
  519   39.348   -0.816    2.675   32.809   26.371 
  520   39.821   -0.823    2.675   32.823   26.383 
  521   40.305   -0.836    2.672   32.831   26.390 
  522   40.800   -0.866    2.672   32.836   26.395 
  523   41.273   -0.870    2.672   32.837   26.396 
  524   41.757   -0.870    2.672   32.838   26.396 
  525   42.209   -0.870    2.672   32.839   26.398 
  526   42.693   -0.871    2.672   32.839   26.398 
  527   43.177   -0.871    2.672   32.839   26.398 
  528   43.650   -0.876    2.672   32.849   26.406 
  529   44.134   -0.880    2.673   32.857   26.413 
  530   44.629   -0.890    2.674   32.880   26.432 
  531   45.102   -0.893    2.675   32.909   26.455 
  532   45.586   -0.896    2.676   32.924   26.467 
  533   46.049   -0.901    2.676   32.931   26.473 
  534   46.554   -0.903    2.677   32.935   26.476 
  535   47.060   -0.905    2.677   32.938   26.479 
  536   47.554   -0.914    2.677   32.948   26.487 
  537   48.060   -0.924    2.677   32.962   26.499 
  538   48.533   -0.926    2.677   32.969   26.505 
  539   48.995   -0.929    2.677   32.973   26.508 
  540   49.469   -0.930    2.678   32.976   26.510 
  541   49.974   -0.932    2.678   32.984   26.517 
  542   50.469   -0.934    2.678   32.991   26.523 
  543   50.974   -0.936    2.679   32.997   26.527 
  544   51.480   -0.937    2.679   32.997   26.528 
  545   51.964   -0.938    2.679   33.000   26.531 
  546   52.469   -0.938    2.679   33.003   26.533 
  547   52.953   -0.938    2.679   33.005   26.535 
  548   53.426   -0.940    2.679   33.008   26.537 
  549   53.900   -0.941    2.679   33.009   26.538 
  550   54.384   -0.941    2.679   33.010   26.538 
  551   54.868   -0.943    2.679   33.011   26.540 
  552   55.351   -0.944    2.679   33.013   26.541 
  553   55.846   -0.945    2.680   33.016   26.543 
  554   56.309   -0.945    2.680   33.018   26.545 
  555   56.803   -0.946    2.680   33.020   26.546 
  556   57.276   -0.947    2.680   33.024   26.550 
  557   57.771   -0.948    2.680   33.026   26.552 
  558   58.266   -0.949    2.680   33.028   26.553 
  559   58.771   -0.950    2.680   33.029   26.554 
  560   59.255   -0.950    2.680   33.029   26.555 
  561   59.739   -0.951    2.680   33.032   26.556 
  562   60.223   -0.951    2.681   33.033   26.557 
  563   60.718   -0.951    2.681   33.034   26.558 
  564   61.212   -0.951    2.681   33.034   26.559 
  565   61.675   -0.952    2.681   33.035   26.559 
  566   62.116   -0.952    2.681   33.035   26.559 
  567   62.567   -0.953    2.681   33.036   26.560 
  568   63.030   -0.954    2.681   33.037   26.561 
  569   63.481   -0.955    2.681   33.039   26.563 
  570   63.944   -0.956    2.681   33.040   26.563 
  571   64.385   -0.956    2.681   33.040   26.564 
  572   64.847   -0.957    2.681   33.042   26.565 
  573   65.277   -0.958    2.681   33.044   26.566 
  574   65.729   -0.959    2.681   33.047   26.569 
  575   66.159   -0.960    2.681   33.051   26.572 
  576   66.589   -0.961    2.682   33.058   26.578 
  577   67.008   -0.963    2.682   33.064   26.583 
  578   67.449   -0.964    2.682   33.068   26.587 
  579   67.912   -0.965    2.683   33.073   26.591 
  580   68.374   -0.965    2.683   33.077   26.594 
  581   68.858   -0.965    2.683   33.081   26.597 
  582   69.352   -0.966    2.684   33.089   26.603 
  583   69.836   -0.967    2.684   33.097   26.610 
  584   70.320   -0.968    2.685   33.103   26.615 
  585   70.815   -0.968    2.685   33.104   26.616 
  586   71.299   -0.968    2.685   33.107   26.618 
  587   71.761   -0.968    2.685   33.109   26.620 
  588   72.202   -0.968    2.686   33.113   26.623 
  589   72.654   -0.968    2.686   33.116   26.625 
  590   73.116   -0.968    2.686   33.120   26.629 
  591   73.578   -0.969    2.686   33.122   26.630 
  592   74.062   -0.970    2.686   33.125   26.632 
  593   74.546   -0.972    2.687   33.128   26.636 
  594   75.051   -0.973    2.687   33.130   26.637 
  595   75.578   -0.973    2.687   33.134   26.640 
  596   76.094   -0.974    2.687   33.137   26.642 
  597   76.557   -0.974    2.687   33.141   26.646 
  598   77.041   -0.975    2.687   33.142   26.647 
  599   77.503   -0.976    2.688   33.145   26.649 
  600   77.955   -0.978    2.688   33.149   26.652 
  601   78.406   -0.980    2.688   33.153   26.655 
  602   78.890   -0.981    2.688   33.158   26.660 
  603   79.385   -0.982    2.688   33.163   26.664 
  604   79.890   -0.984    2.689   33.167   26.667 
  605   80.406   -0.984    2.689   33.169   26.669 
  606   80.911   -0.984    2.689   33.170   26.669 
  607   81.428   -0.984    2.689   33.172   26.671 
  608   81.890   -0.983    2.690   33.178   26.676 
  609   82.363   -0.982    2.690   33.179   26.677 
  610   82.836   -0.981    2.690   33.181   26.679 
  611   83.320   -0.980    2.690   33.182   26.680 
  612   83.804   -0.979    2.691   33.186   26.682 
  613   84.309   -0.978    2.691   33.187   26.683 
  614   84.793   -0.977    2.691   33.190   26.686 
  615   85.309   -0.977    2.691   33.194   26.688 
  616   85.825   -0.976    2.692   33.196   26.691 
  617   86.331   -0.975    2.692   33.202   26.696 
  618   86.847   -0.970    2.694   33.224   26.713 
  619   87.320   -0.954    2.696   33.233   26.719 
  620   87.804   -0.942    2.697   33.235   26.721 
  621   88.309   -0.937    2.698   33.235   26.721 
  622   88.803   -0.932    2.699   33.246   26.730 
  623   89.287   -0.920    2.701   33.252   26.734 
  624   89.782   -0.917    2.701   33.255   26.736 
  625   90.298   -0.916    2.702   33.272   26.750 
  626   90.793   -0.892    2.707   33.286   26.760 
  627   91.298   -0.869    2.707   33.286   26.760 
  628   91.825   -0.864    2.708   33.287   26.760 
  629   92.319   -0.862    2.708   33.287   26.760 
  630   92.846   -0.861    2.708   33.287   26.760 
  631   93.341   -0.860    2.708   33.287   26.760 
  632   93.857   -0.859    2.708   33.288   26.761 
  633   94.373   -0.858    2.709   33.291   26.763 
  634   94.868   -0.856    2.709   33.291   26.763 
  635   95.362   -0.855    2.709   33.293   26.765 
  636   95.878   -0.852    2.710   33.297   26.767 
  637   96.394   -0.848    2.710   33.297   26.767 
  638   96.910   -0.846    2.710   33.297   26.768 
  639   97.426   -0.844    2.711   33.303   26.773 
  640   97.921   -0.833    2.713   33.311   26.778 
  641   98.405   -0.822    2.713   33.316   26.782 
  642   98.910   -0.815    2.714   33.316   26.782 
  643   99.415   -0.806    2.716   33.321   26.785 
  644   99.942   -0.795    2.716   33.322   26.786 
  645  100.448   -0.790    2.717   33.323   26.786 
  646  100.974   -0.788    2.717   33.323   26.786 
  647  101.512   -0.788    2.717   33.323   26.786 
  648  102.039   -0.788    2.717   33.323   26.786 
  649  102.566   -0.788    2.717   33.323   26.786 
  650  103.071   -0.789    2.717   33.324   26.787 
  651  103.587   -0.789    2.717   33.324   26.787 
  652  104.092   -0.789    2.717   33.325   26.788 
  653  104.608   -0.789    2.717   33.327   26.790 
  654  105.114   -0.788    2.718   33.327   26.790 
  655  105.640   -0.788    2.718   33.330   26.792 
  656  106.157   -0.785    2.718   33.333   26.795 
  657  106.662   -0.783    2.719   33.335   26.796 
  658  107.167   -0.782    2.719   33.336   26.797 
  659  107.673   -0.780    2.720   33.348   26.806 
  660  108.189   -0.768    2.722   33.361   26.817 
  661  108.694   -0.753    2.723   33.364   26.819 
  662  109.188   -0.745    2.724   33.369   26.822 
  663  109.683   -0.740    2.726   33.384   26.834 
  664  110.178   -0.740    2.726   33.384   26.834 
  665  110.683   -0.740    2.726   33.385   26.835 
  666  111.188   -0.734    2.727   33.385   26.835 
  667  111.683   -0.730    2.727   33.390   26.838 
  668  112.177   -0.730    2.727   33.390   26.838 
  669  112.661   -0.730    2.729   33.409   26.854 
  670  113.134   -0.719    2.730   33.416   26.858 
  671  113.596   -0.701    2.733   33.416   26.858 
  672  114.080   -0.681    2.734   33.416   26.858 
  673  114.553   -0.675    2.734   33.416   26.858 
  674  115.026   -0.675    2.734   33.416   26.858 
  675  115.531   -0.675    2.734   33.416   26.858 
  676  116.026   -0.675    2.732   33.416   26.857 
  677  116.510   -0.711    2.730   33.416   26.857 
  678  117.004   -0.735    2.729   33.414   26.858 
  679  117.488   -0.747    2.728   33.409   26.858 
  680  117.940   -0.763    2.727   33.414   26.859 
  681  118.402   -0.789    2.724   33.419   26.864 
  682  118.853   -0.822    2.721   33.419   26.866 
  683  119.283   -0.852    2.721   33.428   26.874 
  684  119.746   -0.858    2.720   33.430   26.876 
  685  120.219   -0.865    2.719   33.431   26.877 
  686  120.703   -0.882    2.718   33.433   26.879 
  687  121.186   -0.904    2.718   33.450   26.894 
  688  121.659   -0.905    2.718   33.450   26.894 
  689  122.143   -0.905    2.718   33.450   26.894 
  690  122.605   -0.905    2.718   33.455   26.898 
  691  123.078   -0.904    2.719   33.466   26.907 
  692  123.573   -0.893    2.722   33.489   26.925 
  693  124.078   -0.862    2.725   33.495   26.928 
  694  124.583   -0.833    2.727   33.499   26.930 
  695  125.110   -0.815    2.729   33.499   26.930 
  696  125.637   -0.803    2.730   33.499   26.930 
  697  126.239   -0.789    2.732   33.504   26.933 
  698  126.852   -0.776    2.733   33.505   26.934 
  699  127.475   -0.763    2.734   33.510   26.937 
  700  128.067   -0.747    2.736   33.511   26.937 
  701  128.647   -0.740    2.736   33.513   26.939 
  702  129.206   -0.740    2.737   33.519   26.943 
  703  129.819   -0.740    2.737   33.519   26.943 
  704  130.507   -0.740    2.737   33.519   26.943 
  705  131.217   -0.740    2.737   33.519   26.943 
  706  131.926   -0.743    2.737   33.519   26.943 
  707  132.646   -0.748    2.736   33.519   26.944 
  708  133.356   -0.767    2.734   33.520   26.945 
  709  134.033   -0.805    2.732   33.523   26.949 
  710  134.678   -0.814    2.732   33.532   26.957 
  711  135.270   -0.814    2.732   33.533   26.957 
  712  135.839   -0.814    2.732   33.533   26.958 
  713  136.366   -0.814    2.739   33.579   26.995 
  714  136.818   -0.759    2.741   33.591   27.002 
  715  137.237   -0.742    2.741   33.593   27.003 
  716  137.731   -0.735    2.743   33.620   27.025 
  717  138.247   -0.694    2.753   33.641   27.034 
  718  138.785   -0.586    2.764   33.641   27.036 
  719  139.312   -0.496    2.767   33.643   27.040 
  720  139.806   -0.486    2.767   33.675   27.059 
  721  140.258   -0.485    2.767   33.675   27.059 
  722  140.709   -0.480    2.770   33.675   27.059 
  723  141.139   -0.435    2.775   33.679   27.060 
  724  141.591   -0.403    2.777   33.692   27.064 
  725  142.021   -0.379    2.781   33.692   27.064 
  726  142.461   -0.338    2.784   33.692   27.064 
  727  142.891   -0.317    2.785   33.690   27.064 
  728  143.332   -0.303    2.786   33.690   27.063 
  729  143.773   -0.292    2.787   33.690   27.063 
  730  144.213   -0.286    2.787   33.690   27.063 
  731  144.643   -0.285    2.788   33.690   27.063 
  732  145.073   -0.276    2.789   33.696   27.067 
  733  145.525   -0.264    2.791   33.704   27.073 
  734  145.976   -0.242    2.794   33.714   27.077 
  735  146.417   -0.212    2.797   33.714   27.078 
  736  146.879   -0.190    2.798   33.714   27.078 
  737  147.299   -0.179    2.799   33.715   27.078 
  738  147.739   -0.173    2.799   33.715   27.078 
  739  148.180   -0.170    2.799   33.715   27.078 
  740  148.631   -0.167    2.800   33.716   27.078 
  741  149.115   -0.158    2.801   33.721   27.082 
  742  149.567   -0.147    2.802   33.728   27.086 
  743  150.029   -0.142    2.803   33.732   27.089 
  744  150.480   -0.123    2.808   33.770   27.115 
  745  150.953   -0.063    2.816   33.770   27.115 
  746  151.415   -0.007    2.818   33.772   27.117 
  747  151.878    0.010    2.819   33.772   27.117 
  748  152.308    0.019    2.819   33.777   27.117 
  749  152.759    0.026    2.820   33.777   27.118 
  750  153.221    0.035    2.822   33.783   27.122 
  751  153.684    0.054    2.827   33.830   27.159 
  752  154.146    0.123    2.836   33.868   27.186 
  753  154.619    0.209    2.847   33.882   27.189 
  754  155.102    0.305    2.853   33.883   27.192 
  755  155.565    0.359    2.857   33.894   27.193 
  756  156.059    0.394    2.860   33.896   27.193 
  757  156.532    0.426    2.863   33.896   27.193 
  758  157.027    0.461    2.867   33.900   27.194 
  759  157.500    0.497    2.870   33.900   27.194 
  760  157.983    0.519    2.872   33.904   27.194 
  761  158.456    0.537    2.873   33.906   27.194 
  762  158.972    0.552    2.877   33.934   27.212 
  763  159.445    0.598    2.882   33.934   27.213 
  764  159.961    0.638    2.884   33.936   27.215 
  765  160.456    0.658    2.886   33.949   27.222 
  766  160.961    0.685    2.893   33.989   27.244 
  767  161.466    0.769    2.901   33.989   27.244 
  768  161.982    0.822    2.905   33.990   27.244 
  769  162.509    0.860    2.907   33.995   27.246 
  770  162.992    0.885    2.910   33.995   27.246 
