* Sea-Bird SBE19plus  Data File:
* FileName = C:\Users\Quadra.Lab\Desktop\ctd files\2022-05-17\SBE19plus_01907674_2022_05_17_0002.hex
* Software version 2.8.0.119
* Temperature SN = 7674
* Conductivity SN = 7674
* System UpLoad Time = May 17 2022 13:44:17
* <ApplicationData>
* <Seaterm232>
* <SoftwareVersion>2.8.0.119</SoftwareVersion>
* <BuildDate>07-Nov-2018</BuildDate>
* </Seaterm232>
* </ApplicationData>
* <InstrumentState>
* <HardwareData DeviceType='SBE19plus' SerialNumber='01907674'>
*
*    <Manufacturer>Sea-Bird Electronics, Inc.</Manufacturer>
*
*    <FirmwareVersion>2.5.2</FirmwareVersion>
*
*    <FirmwareDate>12 Mar 2013 11:50</FirmwareDate>
*
*    <CommandSetVersion>1.3</CommandSetVersion>
*
*    <PCBAssembly PCBSerialNum='101177' AssemblyNum='41054h'/>
*
*    <PCBAssembly PCBSerialNum='101239' AssemblyNum='41580c'/>
*
*    <PCBAssembly PCBSerialNum='101243' AssemblyNum='41606'/>
*
*    <PCBAssembly PCBSerialNum='101241' AssemblyNum='41932B'/>
*
*    <MfgDate>12222016</MfgDate>
*
*    <InternalSensors>
*
*       <Sensor id='Main Temperature'>
*
*          <type>temperature0</type>
*
*          <SerialNumber>01907674</SerialNumber>
*
*       </Sensor>
*
*       <Sensor id='Main Conductivity'>
*
*          <type>conductivity-0</type>
*
*          <SerialNumber>01907674</SerialNumber>
*
*       </Sensor>
*
*       <Sensor id='Main Pressure'>
*
*          <type>strain-0</type>
*
*          <SerialNumber>4415752</SerialNumber>
*
*       </Sensor>
*
*    </InternalSensors>
*
*    <ExternalSensors>
*
*       <Sensor id='volt 0'>
*
*          <type>not assigned</type>
*
*          <SerialNumber>not assigned</SerialNumber>
*
*       </Sensor>
*
*       <Sensor id='volt 1'>
*
*          <type>not assigned</type>
*
*          <SerialNumber>not assigned</SerialNumber>
*
*       </Sensor>
*
*       <Sensor id='volt 2'>
*
*          <type>not assigned</type>
*
*          <SerialNumber>not assigned</SerialNumber>
*
*       </Sensor>
*
*       <Sensor id='volt 3'>
*
*          <type>not assigned</type>
*
*          <SerialNumber>not assigned</SerialNumber>
*
*       </Sensor>
*
*       <Sensor id='volt 4'>
*
*          <type>not assigned</type>
*
*          <SerialNumber>not assigned</SerialNumber>
*
*       </Sensor>
*
*       <Sensor id='volt 5'>
*
*          <type>not assigned</type>
*
*          <SerialNumber>not assigned</SerialNumber>
*
*       </Sensor>
*
*       <Sensor id='serial'>
*
*          <type>WetLabs TransX</type>
*
*          <SerialNumber>CSTR-1737PR</SerialNumber>
*
*       </Sensor>
*
*    </ExternalSensors>
*
* </HardwareData>
* <StatusData DeviceType='SBE19plus' SerialNumber='01907674'>
*
*    <DateTime>2022-05-17T13:43:18</DateTime>
*
*    <LoggingState>not logging</LoggingState>
*
*    <EventSummary numEvents='0'/>
*
*    <Power>
*
*       <vMain>12.8</vMain>
*
*       <vLith>8.1</vLith>
*
*       <iMain>60.8</iMain>
*
*       <iPump>67.2</iPump>
*
*       <iExt01> 8.1</iExt01>
*
*       <iExt2345>44.9</iExt2345>
*
*    </Power>
*
*    <MemorySummary>
*
*       <Bytes>85997</Bytes>
*
*       <Samples>3739</Samples>
*
*       <SamplesFree>2857049</SamplesFree>
*
*       <SampleLength>23</SampleLength>
*
*       <Profiles>2</Profiles>
*
*    </MemorySummary>
*
* </StatusData>
* <ConfigurationData DeviceType='SBE19plus' SerialNumber='01907674'>
*
*    <ProfileMode>
*
*       <ScansToAverage>1</ScansToAverage>
*
*       <MinimumCondFreq>3000</MinimumCondFreq>
*
*       <PumpDelay>60</PumpDelay>
*
*       <AutoRun>no</AutoRun>
*
*       <IgnoreSwitch>no</IgnoreSwitch>
*
*    </ProfileMode>
*
*    <Battery>
*
*       <Type>alkaline</Type>
*
*       <CutOff>7.5</CutOff>
*
*    </Battery>
*
*    <DataChannels>
*
*       <ExtVolt0>yes</ExtVolt0>
*
*       <ExtVolt1>yes</ExtVolt1>
*
*       <ExtVolt2>yes</ExtVolt2>
*
*       <ExtVolt3>yes</ExtVolt3>
*
*       <ExtVolt4>yes</ExtVolt4>
*
*       <ExtVolt5>yes</ExtVolt5>
*
*       <SBE38>no</SBE38>
*
*       <WETLABS>no</WETLABS>
*
*       <OPTODE>no</OPTODE>
*
*       <SBE63>no</SBE63>
*
*       <GTD>no</GTD>
*
*    </DataChannels>
*
*    <EchoCharacters>yes</EchoCharacters>
*
*    <OutputExecutedTag>yes</OutputExecutedTag>
*
*    <OutputFormat>raw HEX</OutputFormat>
*
* </ConfigurationData>
* <CalibrationCoefficients DeviceType='SBE19plus' SerialNumber='01907674'>
*
*    <Calibration format='TEMP1' id='Main Temperature'>
*
*       <SerialNum>01907674</SerialNum>
*
*       <CalDate>09-Jan-22</CalDate>
*
*       <TA0>1.254230e-03</TA0>
*
*       <TA1>2.734139e-04</TA1>
*
*       <TA2>-8.458291e-07</TA2>
*
*       <TA3>1.706533e-07</TA3>
*
*       <TOFFSET>0.000000e+00</TOFFSET>
*
*    </Calibration>
*
*    <Calibration format='WBCOND0' id='Main Conductivity'>
*
*       <SerialNum>01907674</SerialNum>
*
*       <CalDate>09-Jan-22</CalDate>
*
*       <G>-9.745918e-01</G>
*
*       <H>1.326747e-01</H>
*
*       <I>-1.616794e-04</I>
*
*       <J>3.117327e-05</J>
*
*       <CPCOR>-9.570000e-08</CPCOR>
*
*       <CTCOR>3.250000e-06</CTCOR>
*
*       <CSLOPE>1.000000e+00</CSLOPE>
*
*    </Calibration>
*
*    <Calibration format='STRAIN0' id='Main Pressure'>
*
*       <SerialNum>4415752</SerialNum>
*
*       <CalDate>05-Jan-22</CalDate>
*
*       <PA0>1.483748e+00</PA0>
*
*       <PA1>3.155747e-03</PA1>
*
*       <PA2>1.018618e-10</PA2>
*
*       <PTCA0>5.229693e+05</PTCA0>
*
*       <PTCA1>9.434330e+00</PTCA1>
*
*       <PTCA2>5.546896e-01</PTCA2>
*
*       <PTCB0>2.492863e+01</PTCB0>
*
*       <PTCB1>3.250000e-04</PTCB1>
*
*       <PTCB2>0.000000e+00</PTCB2>
*
*       <PTEMPA0>1.682415e+02</PTEMPA0>
*
*       <PTEMPA1>-4.869196e+01</PTEMPA1>
*
*       <PTEMPA2>-2.565556e+00</PTEMPA2>
*
*       <POFFSET>0.000000e+00</POFFSET>
*
*       <PRANGE>8.700000e+02</PRANGE>
*
*    </Calibration>
*
*    <Calibration format='VOLT0' id='Volt 0'>
*
*       <OFFSET>-4.646421e-02</OFFSET>
*
*       <SLOPE>1.251479e+00</SLOPE>
*
*    </Calibration>
*
*    <Calibration format='VOLT0' id='Volt 1'>
*
*       <OFFSET>-4.659158e-02</OFFSET>
*
*       <SLOPE>1.251417e+00</SLOPE>
*
*    </Calibration>
*
*    <Calibration format='VOLT0' id='Volt 2'>
*
*       <OFFSET>-4.720316e-02</OFFSET>
*
*       <SLOPE>1.251404e+00</SLOPE>
*
*    </Calibration>
*
*    <Calibration format='VOLT0' id='Volt 3'>
*
*       <OFFSET>-4.635895e-02</OFFSET>
*
*       <SLOPE>1.250783e+00</SLOPE>
*
*    </Calibration>
*
*    <Calibration format='VOLT0' id='Volt 4'>
*
*       <OFFSET>-4.578105e-02</OFFSET>
*
*       <SLOPE>1.252584e+00</SLOPE>
*
*    </Calibration>
*
*    <Calibration format='VOLT0' id='Volt 5'>
*
*       <OFFSET>-4.584527e-02</OFFSET>
*
*       <SLOPE>1.251505e+00</SLOPE>
*
*    </Calibration>
*
*    <Calibration format='FREQ0' id='external frequency channel'>
*
*       <EXTFREQSF>9.999908e-01</EXTFREQSF>
*
*    </Calibration>
*
* </CalibrationCoefficients>
* <EventCounters DeviceType='SBE19plus' SerialNumber='01907674'>
*
*    <EventSummary numEvents='0'/>
*
* </EventCounters></InstrumentState>
* <Headers>
*
* cast   2 17 May 2022 11:21:24 samples 2606 to 3739, avg = 1, stop = mag switch
*
* </Headers><UserHeaderInsert>
* <![CDATA[
** Workarea: QUADRA
* ]]>
* </UserHeaderInsert>
# nquan = 13
# nvalues = 894                                   
# units = specified
# name 0 = scan: Scan Count
# name 1 = timeS: Time, Elapsed [seconds]
# name 2 = prdM: Pressure, Strain Gauge [db]
# name 3 = tv290C: Temperature [ITS-90, deg C]
# name 4 = c0mS/cm: Conductivity [mS/cm]
# name 5 = sbeox0V: Oxygen raw, SBE 43 [V]
# name 6 = flSP: Fluorescence, Seapoint
# name 7 = seaTurbMtr: Turbidity, Seapoint [FTU]
# name 8 = par: PAR/Irradiance, Biospherical/Licor
# name 9 = dz/dtM: Descent Rate [m/s]
# name 10 = CStarTr0: Beam Transmission, WET Labs C-Star [%]
# name 11 = CStarAt0: Beam Attenuation, WET Labs C-Star [1/m]
# name 12 = flag:  0.000e+00
# span 0 =        241,       1134                 
# span 1 =     60.000,    283.250                 
# span 2 =     -0.245,     63.515                 
# span 3 =     8.8676,    10.5754                 
# span 4 =   3.339002,  32.084300                 
# span 5 =     1.6260,     2.7420                 
# span 6 = 0.0000e+00, 7.6425e+00                 
# span 7 =      0.000,      1.457                 
# span 8 = 1.0000e-12, 2.8984e+03                 
# span 9 =     -1.114,      1.167                 
# span 10 =     0.4719,    96.4537                
# span 11 =     0.1444,    21.4246                
# span 12 = 0.0000e+00, 0.0000e+00                
# interval = seconds: 0.25
# start_time = May 17 2022 11:21:24 [Instrument's time stamp, header]
# bad_flag = -9.990e-29
# <Sensors count="9" >
#   <sensor Channel="1" >
#     <!-- Count, Temperature -->
#     <TemperatureSensor SensorID="58" >
#       <SerialNumber>7674</SerialNumber>
#       <CalibrationDate>27-Jan-21</CalibrationDate>
#       <A0>1.26457554e-003</A0>
#       <A1>2.69421196e-004</A1>
#       <A2>-3.33822125e-007</A2>
#       <A3>1.48842057e-007</A3>
#       <Slope>1.00000000</Slope>
#       <Offset>0.0000</Offset>
#     </TemperatureSensor>
#   </sensor>
#   <sensor Channel="2" >
#     <!-- Frequency 0, Conductivity -->
#     <ConductivitySensor SensorID="3" >
#       <SerialNumber>7674</SerialNumber>
#       <CalibrationDate>27-Jan-21</CalibrationDate>
#       <UseG_J>1</UseG_J>
#       <!-- Cell const and series R are applicable only for wide range sensors. -->
#       <SeriesR>0.0000</SeriesR>
#       <CellConst>2000.0000</CellConst>
#       <ConductivityType>0</ConductivityType>
#       <Coefficients equation="0" >
#         <A>0.00000000e+000</A>
#         <B>0.00000000e+000</B>
#         <C>0.00000000e+000</C>
#         <D>0.00000000e+000</D>
#         <M>0.0</M>
#         <CPcor>-9.57000000e-008</CPcor>
#       </Coefficients>
#       <Coefficients equation="1" >
#         <G>-9.74661029e-001</G>
#         <H>1.32746460e-001</H>
#         <I>-1.89592430e-004</I>
#         <J>3.29733661e-005</J>
#         <CPcor>-9.57000000e-008</CPcor>
#         <CTcor>3.2500e-006</CTcor>
#         <!-- WBOTC not applicable unless ConductivityType = 1. -->
#         <WBOTC>0.00000000e+000</WBOTC>
#       </Coefficients>
#       <Slope>1.00000000</Slope>
#       <Offset>0.00000</Offset>
#     </ConductivitySensor>
#   </sensor>
#   <sensor Channel="3" >
#     <!-- Count, Pressure, Strain Gauge -->
#     <PressureSensor SensorID="46" >
#       <SerialNumber>7674</SerialNumber>
#       <CalibrationDate>11-Dec-20</CalibrationDate>
#       <PA0>1.53386725e+000</PA0>
#       <PA1>3.15545305e-003</PA1>
#       <PA2>9.32842698e-011</PA2>
#       <PTEMPA0>1.68241545e+002</PTEMPA0>
#       <PTEMPA1>-4.86919576e+001</PTEMPA1>
#       <PTEMPA2>-2.56555648e+000</PTEMPA2>
#       <PTCA0>5.23015704e+005</PTCA0>
#       <PTCA1>1.10567122e+001</PTCA1>
#       <PTCA2>5.51399014e-001</PTCA2>
#       <PTCB0>2.49286250e+001</PTCB0>
#       <PTCB1>3.25000000e-004</PTCB1>
#       <PTCB2>0.00000000e+000</PTCB2>
#       <Offset>0.000000</Offset>
#     </PressureSensor>
#   </sensor>
#   <sensor Channel="4" >
#     <!-- A/D voltage 0, Oxygen, SBE 43 -->
#     <OxygenSensor SensorID="38" >
#       <SerialNumber>3292</SerialNumber>
#       <CalibrationDate>21-Jan-21</CalibrationDate>
#       <Use2007Equation>1</Use2007Equation>
#       <CalibrationCoefficients equation="0" >
#         <!-- Coefficients for Owens-Millard equation. -->
#         <Boc>0.0000</Boc>
#         <Soc>0.0000e+000</Soc>
#         <offset>0.0000</offset>
#         <Pcor>0.00e+000</Pcor>
#         <Tcor>0.0000</Tcor>
#         <Tau>0.0</Tau>
#       </CalibrationCoefficients>
#       <CalibrationCoefficients equation="1" >
#         <!-- Coefficients for Sea-Bird equation - SBE calibration in 2007 and later. -->
#         <Soc>5.1911e-001</Soc>
#         <offset>-0.5272</offset>
#         <A>-4.8456e-003</A>
#         <B> 2.3997e-004</B>
#         <C>-3.5302e-006</C>
#         <D0> 2.5826e+000</D0>
#         <D1> 1.92634e-004</D1>
#         <D2>-4.64803e-002</D2>
#         <E> 3.6000e-002</E>
#         <Tau20> 1.2600</Tau20>
#         <H1>-3.3000e-002</H1>
#         <H2> 5.0000e+003</H2>
#         <H3> 1.4500e+003</H3>
#       </CalibrationCoefficients>
#     </OxygenSensor>
#   </sensor>
#   <sensor Channel="5" >
#     <!-- A/D voltage 1, PAR/Irradiance, Biospherical/Licor -->
#     <PAR_BiosphericalLicorChelseaSensor SensorID="42" >
#       <SerialNumber>70772</SerialNumber>
#       <CalibrationDate>16-Feb-2021</CalibrationDate>
#       <M>1.00000000</M>
#       <B>0.00000000</B>
#       <CalibrationConstant>10101000000.00000000</CalibrationConstant>
#       <Multiplier>1.00000000</Multiplier>
#       <Offset>-0.10139936</Offset>
#     </PAR_BiosphericalLicorChelseaSensor>
#   </sensor>
#   <sensor Channel="6" >
#     <!-- A/D voltage 2, Turbidity Meter, Seapoint -->
#     <OBS_SeapointTurbiditySensor SensorID="33" >
#       <SerialNumber>15131</SerialNumber>
#       <CalibrationDate>20-Jan-2021</CalibrationDate>
#       <!-- The following is an array index, not the actual gain setting. -->
#       <GainSetting>2</GainSetting>
#       <ScaleFactor>1.000</ScaleFactor>
#     </OBS_SeapointTurbiditySensor>
#   </sensor>
#   <sensor Channel="7" >
#     <!-- A/D voltage 3, Fluorometer, Seapoint -->
#     <FluoroSeapointSensor SensorID="11" >
#       <SerialNumber>3708</SerialNumber>
#       <CalibrationDate>20-Jan-2021</CalibrationDate>
#       <!-- The following is an array index, not the actual gain setting. -->
#       <GainSetting>3</GainSetting>
#       <Offset>0.000</Offset>
#     </FluoroSeapointSensor>
#   </sensor>
#   <sensor Channel="8" >
#     <!-- A/D voltage 4, Transmissometer, WET Labs C-Star -->
#     <WET_LabsCStar SensorID="71" >
#       <SerialNumber>CSTR-1737PR</SerialNumber>
#       <CalibrationDate>11-Feb-2021</CalibrationDate>
#       <M>21.3570</M>
#       <B>-0.0430</B>
#       <PathLength>0.250</PathLength>
#     </WET_LabsCStar>
#   </sensor>
#   <sensor Channel="9" >
#     <!-- A/D voltage 5, Free -->
#   </sensor>
# </Sensors>
# datcnv_date = May 18 2022 09:00:11, 7.26.1.8 [datcnv_vars = 12]
# datcnv_in = C:\Users\Hakai\AppData\Local\Temp\sbe19plus_01907674_2022_05_17_0002.hex C:\Users\Hakai\Git\hakai-data-tools\ctd-tools\seabird-proc\xmlcon\19-7674-20210127.xmlcon
# datcnv_skipover = 240
# datcnv_ox_hysteresis_correction = no
# file_type = ascii
*END*
        241     60.000      3.256    10.5074  31.615660     2.0346 7.3930e-01      0.319 3.2607e+02 -5.390e-14    91.1516     0.3706  0.000e+00
        242     60.250      3.259    10.5086  31.690643     2.0313 8.7892e-01      0.284 3.2516e+02      0.001    90.0419     0.4196  0.000e+00
        243     60.500      3.239    10.5155  31.709195     2.0273 8.7205e-01      0.267 3.2901e+02     -0.004    90.0436     0.4195  0.000e+00
        244     60.750      3.226    10.5229  31.701691     2.0272 1.2772e+00      0.257 3.3255e+02     -0.011    90.0419     0.4196  0.000e+00
        245     61.000      3.217    10.5264  31.693316     2.0368 1.0025e+00      0.235 3.3384e+02     -0.019    90.0403     0.4197  0.000e+00
        246     61.250      3.222    10.5273  31.696166     2.0615 8.4916e-01      0.256 3.3150e+02     -0.022    91.3797     0.3606  0.000e+00
        247     61.500      3.223    10.5275  31.701109     2.1003 1.5335e+00      0.246 3.2832e+02     -0.023    91.3846     0.3604  0.000e+00
        248     61.750      3.236    10.5280  31.709543     2.1511 8.5374e-01      0.248 3.2953e+02     -0.018    91.3878     0.3602  0.000e+00
        249     62.000      3.249    10.5293  31.709194     2.2039 7.2557e-01      0.244 3.3197e+02     -0.009    90.8615     0.3833  0.000e+00
        250     62.250      3.255    10.5303  31.710531     2.2578 7.5074e-01      0.271 3.3273e+02      0.003    90.8583     0.3835  0.000e+00
        251     62.500      3.263    10.5309  31.711520     2.3088 1.1353e+00      0.246 3.2953e+02      0.017    90.8550     0.3836  0.000e+00
        252     62.750      3.265    10.5314  31.712102     2.3559 8.0110e-01      0.265 3.2647e+02      0.026    91.4335     0.3582  0.000e+00
        253     63.000      3.265    10.5317  31.710182     2.4008 6.5690e-01      0.273 3.2556e+02      0.028    91.4269     0.3585  0.000e+00
        254     63.250      3.265    10.5318  31.708554     2.4397 7.0497e-01      0.275 3.2918e+02      0.025    91.4188     0.3589  0.000e+00
        255     63.500      3.261    10.5315  31.707216     2.4738 6.5919e-01      0.242 3.3226e+02      0.018    91.4237     0.3587  0.000e+00
        256     63.750      3.250    10.5312  31.705122     2.5050 7.3243e-01      0.248 3.3537e+02      0.007    91.1027     0.3727  0.000e+00
        257     64.000      3.238    10.5302  31.701865     2.5329 8.4001e-01      0.252 3.3573e+02     -0.004    91.1027     0.3727  0.000e+00
        258     64.250      3.232    10.5297  31.700702     2.5582 9.3385e-01      0.229 3.3655e+02     -0.014    91.0978     0.3729  0.000e+00
        259     64.500      3.230    10.5293  31.697561     2.5798 8.4916e-01      0.223 3.3232e+02     -0.020    91.3373     0.3624  0.000e+00
        260     64.750      3.243    10.5289  31.698724     2.5981 1.5633e+00      0.238 3.2659e+02     -0.019    91.3504     0.3619  0.000e+00
        261     65.000      3.256    10.5287  31.704250     2.6146 9.2470e-01      0.231 3.2745e+02     -0.012    91.3357     0.3625  0.000e+00
        262     65.250      3.267    10.5291  31.705936     2.6301 7.2557e-01      0.246 3.3320e+02     -0.002    91.3275     0.3629  0.000e+00
        263     65.500      3.270    10.5295  31.705995     2.6426 9.5216e-01      0.248 3.3667e+02      0.009    91.2216     0.3675  0.000e+00
        264     65.750      3.263    10.5299  31.702447     2.6537 7.9881e-01      0.265 3.3508e+02      0.016    91.2330     0.3670  0.000e+00
        265     66.000      3.244    10.5299  31.697736     2.6654 8.4459e-01      0.261 3.3046e+02      0.015    91.2249     0.3674  0.000e+00
        266     66.250      3.231    10.5290  31.695758     2.6727 8.1941e-01      0.256 3.3069e+02      0.006    91.6893     0.3471  0.000e+00
        267     66.500      3.229    10.5284  31.695758     2.6795 8.1025e-01      0.242 3.3081e+02     -0.004    91.6991     0.3466  0.000e+00
        268     66.750      3.234    10.5282  31.699713     2.6858 7.6448e-01      0.242 3.3081e+02     -0.014    91.6925     0.3469  0.000e+00
        269     67.000      3.247    10.5284  31.699713     2.6913 7.3243e-01      0.235 3.3285e+02     -0.016    90.7067     0.3902  0.000e+00
        270     67.250      3.253    10.5287  31.703261     2.6960 7.3472e-01      0.259 3.3279e+02     -0.013    90.7067     0.3902  0.000e+00
        271     67.500      3.255    10.5288  31.704831     2.6998 9.4072e-01      0.313 3.2982e+02     -0.005    90.7181     0.3897  0.000e+00
        272     67.750      3.251    10.5293  31.705820     2.7031 1.2383e+00      0.269 3.3011e+02      0.003    90.7084     0.3901  0.000e+00
        273     68.000      3.235    10.5296  31.709950     2.7060 8.5374e-01      0.254 3.3110e+02      0.006    91.0636     0.3744  0.000e+00
        274     68.250      3.228    10.5304  31.719664     2.7080 1.0369e+00      0.269 3.3104e+02      0.003    91.0620     0.3745  0.000e+00
        275     68.500      3.231    10.5317  31.742297     2.7113 8.0339e-01      0.240 3.2947e+02     -0.002    91.0636     0.3744  0.000e+00
        276     68.750      3.236    10.5344  31.795441     2.7139 7.3014e-01      0.238 3.2699e+02     -0.007    91.2884     0.3646  0.000e+00
        277     69.000      3.245    10.5403  31.811862     2.7164 7.2557e-01      0.263 3.2878e+02     -0.009    91.2819     0.3649  0.000e+00
        278     69.250      3.246    10.5453  31.804931     2.7185 1.3916e+00      0.282 3.2918e+02     -0.006    91.2819     0.3649  0.000e+00
        279     69.500      3.238    10.5480  31.818209     2.7208 7.8508e-01      0.275 3.3349e+02     -0.004    91.5280     0.3541  0.000e+00
